Time [s]	Current [nA]
0.000	58.524
0.939	66.873
1.995	65.997
3.004	66.990
4.005	68.125
5.005	67.661
5.996	63.768
7.018	68.193
8.002	70.623
9.001	67.861
10.001	68.193
11.001	67.893
11.997	64.953
12.995	70.133
14.000	68.948
14.999	67.761
16.001	67.626
17.003	70.652
18.019	61.116
19.000	71.960
20.001	67.526
21.001	67.693
22.001	68.993
22.995	64.480
23.999	69.913
25.000	69.723
26.002	67.526
27.002	67.593
28.026	69.622
29.003	63.249
29.998	71.149
31.006	67.751
32.001	67.229
33.001	67.793
33.995	64.883
34.996	71.721
36.006	69.864
37.001	68.636
38.002	68.325
39.044	65.828
40.002	68.887
41.005	71.080
42.007	70.751
43.001	69.410
44.002	69.124
44.998	65.154
45.996	71.006
47.023	67.277
48.005	71.378
49.001	69.371
50.002	68.525
50.997	65.722
51.996	71.364
53.002	69.874
54.001	69.663
54.941	65.844
55.942	72.893
56.942	64.494
57.958	75.681
59.007	67.486
59.942	67.266
60.942	70.193
61.999	69.056
62.942	70.513
64.002	73.106
65.001	69.663
66.002	69.593
66.997	65.521
68.029	69.664
69.001	74.478
70.003	71.151
71.001	70.935
72.002	70.622
72.942	0.851
