Time [s]	Current [nA]
0.000	64.735
1.044	64.553
1.995	66.029
2.999	66.228
3.999	66.793
4.937	71.741
5.938	63.994
6.996	65.305
7.938	65.917
8.938	66.793
9.998	67.918
11.008	68.805
11.938	65.477
13.004	66.785
13.999	69.842
14.994	60.295
15.995	65.893
16.998	68.189
17.939	66.625
18.995	63.441
19.996	65.628
20.996	66.193
22.015	65.057
23.004	71.176
23.938	67.231
25.001	63.270
26.001	67.093
26.998	66.693
28.001	70.282
28.998	62.381
30.015	65.873
31.004	67.941
32.005	66.527
32.939	64.662
34.000	65.686
35.000	70.293
36.004	67.291
37.004	67.093
38.001	68.499
38.998	63.284
40.007	69.270
41.006	67.661
42.001	61.401
43.000	66.360
44.000	64.994
44.999	68.261
45.997	62.582
47.001	66.926
48.001	66.893
49.001	66.693
50.000	69.863
51.032	66.176
52.001	64.699
53.003	67.658
53.998	67.531
54.998	67.993
56.006	69.308
57.002	63.347
58.000	68.029
59.000	66.893
59.998	65.825
61.026	66.822
61.990	63.064
62.999	68.080
64.006	68.712
65.007	67.193
66.001	66.392
66.996	62.808
67.995	69.362
69.002	67.918
70.001	67.661
70.940	65.169
72.019	69.224
73.002	64.388
74.001	69.863
74.994	12.889
