Time [s]	Current [nA]
0.000	51.715
1.003	66.893
2.008	70.043
3.005	63.484
4.007	69.354
5.007	67.561
6.013	67.289
7.004	63.566
8.027	64.216
8.946	60.059
10.006	58.956
11.005	58.052
12.003	57.008
13.009	59.239
14.005	54.513
15.007	59.335
16.008	57.736
17.007	57.151
18.025	58.049
19.004	52.191
19.997	57.597
21.009	56.813
22.007	58.110
23.007	57.194
24.003	55.517
24.947	58.681
26.008	60.277
27.007	58.052
28.008	58.635
29.047	55.721
30.005	58.241
31.005	60.194
32.008	59.416
33.009	59.934
33.947	56.391
35.004	57.705
36.004	60.454
37.019	59.403
38.013	60.658
39.009	59.432
39.948	57.183
41.004	58.612
42.009	63.178
43.013	60.253
44.008	60.396
45.008	60.855
46.005	57.667
47.007	62.269
48.023	60.132
49.013	63.327
50.013	61.494
51.010	62.381
52.003	59.813
52.948	62.957
54.009	66.534
55.008	63.521
56.009	64.929
57.006	60.877
58.040	63.630
59.011	69.097
60.015	64.735
61.010	63.511
62.008	63.821
63.010	66.660
64.006	61.339
65.010	66.494
66.011	64.829
67.010	64.658
68.015	66.561
69.032	58.106
70.014	70.054
71.014	65.793
72.010	65.857
73.010	66.093
74.005	62.506
75.007	67.857
76.011	66.494
77.012	65.728
78.010	66.126
79.036	65.296
79.949	67.354
80.949	13.399
