Time [s]	Current [nA]
0.000	10.245
1.057	69.719
2.063	68.184
3.055	66.425
4.058	71.080
5.069	69.498
6.000	69.166
7.061	71.718
8.059	68.430
9.057	64.823
10.058	70.522
11.062	69.913
12.061	69.563
13.061	69.093
14.057	65.255
15.077	69.080
16.063	71.494
17.067	70.212
18.063	69.672
19.056	61.827
20.059	70.182
21.063	72.403
22.001	67.371
23.055	65.363
24.057	68.556
25.060	70.652
26.083	68.810
27.058	66.968
28.059	69.923
29.056	69.100
30.058	69.155
31.059	71.222
32.066	71.393
33.059	63.841
34.059	69.193
35.057	67.997
36.085	67.114
37.059	70.424
38.064	70.142
39.056	62.393
40.056	67.593
41.064	73.604
42.059	63.913
43.063	71.407
44.059	61.540
45.060	67.993
46.070	72.963
47.068	61.116
48.059	71.234
49.057	54.904
50.059	26.045
51.002	38.172
52.057	46.251
53.057	60.294
54.064	66.925
55.080	64.821
56.064	63.002
57.062	67.929
58.056	68.404
59.064	70.628
60.060	63.548
61.059	68.462
62.059	67.493
63.059	67.893
64.063	70.312
65.090	60.715
66.061	70.436
67.060	67.961
68.058	67.128
69.003	71.210
70.065	66.566
71.062	62.983
72.064	67.458
73.059	66.727
74.063	66.328
75.071	69.308
76.075	1.195
