Time [s]	Current [nA]
0.000	22.220
0.991	61.750
2.007	61.313
3.003	62.544
4.003	61.794
5.021	63.809
6.005	57.413
7.003	64.122
8.008	61.188
9.004	61.038
10.003	60.955
10.999	57.524
12.003	62.046
13.003	61.494
14.003	61.294
15.008	61.747
16.031	58.938
17.005	57.386
18.008	64.101
19.008	61.494
20.005	61.879
21.000	56.577
22.003	62.905
23.006	64.201
24.008	55.384
25.005	62.343
26.002	61.679
27.001	61.656
27.999	63.020
29.006	63.152
30.001	56.778
31.000	60.955
32.001	60.533
33.002	62.232
34.018	62.691
35.000	54.781
36.006	59.696
37.001	59.994
38.001	61.094
39.005	62.344
40.006	63.230
41.001	56.477
42.001	60.994
43.002	60.134
43.998	62.142
45.022	60.307
46.002	57.545
47.002	59.994
48.001	59.353
49.001	60.894
50.002	63.430
51.006	63.440
52.006	55.894
53.001	60.295
54.001	60.494
55.024	59.974
56.010	62.671
56.999	56.011
58.002	58.917
59.000	58.211
60.004	58.659
61.000	63.247
62.002	56.581
63.007	60.392
64.001	59.853
64.944	63.832
66.028	56.319
67.006	43.349
68.003	17.150
69.009	29.222
69.945	43.265
71.003	45.270
72.006	55.029
73.000	54.321
74.004	61.348
75.002	60.214
76.004	60.833
77.004	61.994
78.005	65.128
79.004	58.953
80.004	61.794
81.004	60.494
82.004	60.494
83.004	62.494
84.017	63.370
85.021	22.530
