Time [s]	Current [nA]
0.000	34.688
0.994	61.764
1.998	62.942
3.001	66.294
4.006	66.859
4.994	59.407
5.998	62.905
6.999	64.229
8.000	65.528
9.043	62.314
9.995	63.229
11.004	62.531
12.004	63.194
12.995	64.474
14.001	65.898
15.000	66.460
15.996	56.678
16.997	62.331
17.998	62.731
18.933	69.191
20.000	61.100
21.004	60.253
21.999	64.516
23.000	62.631
24.000	62.694
25.001	66.826
25.999	59.874
26.995	64.552
27.938	60.545
29.006	64.694
30.023	61.941
31.000	59.462
32.004	64.336
33.004	64.194
34.001	63.484
34.997	57.123
35.999	65.628
37.002	67.989
38.021	62.997
38.998	58.950
40.003	64.272
40.996	64.445
42.000	59.954
43.003	65.497
44.008	63.775
45.003	63.612
46.001	62.281
47.002	58.935
48.020	63.451
49.001	64.927
50.004	63.902
51.005	62.931
52.005	63.194
53.002	59.272
54.005	66.893
55.001	57.324
56.002	63.494
57.005	64.400
58.005	65.293
59.027	63.497
59.992	61.134
61.001	63.720
61.997	63.447
63.002	62.879
64.004	65.363
65.010	66.262
66.002	58.059
67.003	62.731
68.003	64.194
69.042	63.420
70.002	60.723
71.006	65.432
72.005	64.858
73.007	62.668
74.005	64.222
75.002	59.573
76.003	66.593
77.002	56.751
77.999	62.481
79.112	46.626
