Time [s]	Current [nA]
0.000	8.332
1.063	41.576
2.000	47.274
3.000	44.796
4.000	43.296
5.056	44.451
6.060	45.215
7.001	42.823
8.000	43.739
9.000	24.898
10.060	19.715
11.000	29.572
12.062	40.956
13.000	41.574
14.000	45.195
15.000	42.496
16.001	45.495
17.001	44.696
18.001	43.996
19.001	44.196
20.001	41.996
21.001	44.296
22.001	45.495
23.001	44.196
24.001	43.996
25.002	44.396
26.059	43.799
27.001	44.794
28.001	45.495
29.059	41.395
30.001	47.129
31.001	41.196
32.001	35.596
33.001	40.396
34.062	36.471
35.001	40.571
36.002	37.096
37.002	35.196
38.002	35.496
39.063	37.697
40.002	34.927
41.002	36.596
42.002	36.796
43.001	39.035
44.001	36.096
45.001	38.696
46.002	37.496
47.002	36.896
48.053	37.199
49.002	41.303
50.002	34.197
51.002	36.696
52.002	36.896
53.002	36.896
54.002	39.096
55.002	47.795
56.003	41.796
57.003	44.396
58.003	45.095
59.003	48.395
60.003	48.595
61.002	46.842
62.002	43.096
63.002	46.795
64.002	47.295
65.002	48.595
66.003	48.695
67.003	43.496
68.003	45.795
69.003	45.095
70.061	43.568
71.093	44.279
72.003	45.929
73.003	44.995
74.003	44.296
75.003	44.696
76.004	46.895
77.066	44.534
78.003	43.432
79.003	40.196
80.003	38.396
81.011	39.282
82.003	35.581
83.003	39.396
84.003	39.496
85.003	38.496
86.004	34.097
87.004	38.696
88.004	38.196
89.004	33.897
90.004	37.296
91.004	38.296
92.004	37.996
93.004	39.696
94.065	38.922
95.004	42.062
96.004	43.940
97.004	43.796
98.004	46.595
99.004	44.796
100.004	47.395
101.004	47.295
102.004	46.595
103.004	46.795
104.004	48.395
105.004	44.796
106.005	47.695
107.005	46.695
108.005	46.795
109.005	44.995
110.005	48.495
111.005	47.595
112.005	48.095
113.061	44.503
114.004	50.154
115.004	44.596
116.005	48.995
117.005	47.895
118.005	46.795
119.005	18.098
