Time [s]	Current [nA]
0.000	1.008
1.062	39.921
2.062	41.996
3.000	42.746
4.000	43.496
5.000	42.796
6.059	39.505
7.001	44.051
8.001	43.096
9.001	39.296
10.001	44.596
11.000	42.538
12.000	42.296
13.000	42.396
14.000	39.796
15.063	45.476
16.001	41.360
17.001	41.796
18.001	41.596
19.001	42.496
20.001	39.196
21.001	43.196
22.001	41.496
23.001	40.896
24.001	40.996
25.001	39.196
26.002	42.696
27.002	42.296
28.062	38.958
29.001	44.404
30.001	41.096
31.001	39.696
32.001	42.796
33.001	41.596
34.001	41.396
35.001	41.696
36.002	39.096
37.002	42.996
38.002	41.596
39.002	42.196
40.002	41.896
41.002	41.796
42.002	39.096
43.002	42.996
44.002	41.596
45.002	41.296
46.002	41.738
47.002	39.196
48.002	42.196
49.002	43.596
50.002	41.996
51.002	41.896
52.002	41.896
53.002	38.996
54.002	42.196
55.002	42.396
56.003	41.396
57.003	41.596
58.003	38.096
59.003	42.396
60.003	43.496
61.060	39.258
62.003	43.686
63.002	41.938
64.002	39.896
65.002	43.596
66.003	42.596
67.061	39.694
68.061	42.096
69.003	44.475
70.003	39.396
71.003	43.296
72.003	42.196
73.003	41.596
74.003	41.896
75.063	41.733
76.004	42.504
77.004	43.296
78.004	42.296
79.004	42.296
80.064	40.185
81.003	43.020
82.003	44.196
83.060	40.488
84.003	45.064
85.003	42.496
86.004	40.196
87.004	43.496
88.004	42.096
89.066	39.450
90.004	44.132
91.004	42.096
92.004	40.096
93.004	44.196
94.004	42.696
95.004	41.896
96.005	41.696
97.005	40.096
98.004	42.738
99.062	41.206
100.004	45.112
101.004	41.696
102.004	41.796
103.004	39.696
104.004	43.296
105.004	43.096
106.005	41.396
107.005	41.396
108.005	43.396
109.005	38.596
110.005	43.596
111.005	42.096
112.005	41.796
113.005	42.096
114.059	41.077
115.005	41.962
116.005	42.939
117.005	41.496
118.005	41.696
119.005	42.596
120.117	21.581
