Time [s]	Current [nA]
0.000	30.427
0.999	54.249
1.999	43.796
2.999	19.998
4.061	28.152
4.999	45.411
6.000	50.195
7.000	53.095
8.000	50.395
9.000	55.794
10.000	53.495
11.000	52.895
12.000	52.995
13.000	49.695
14.000	54.695
15.000	53.395
16.001	53.295
17.001	52.795
18.000	53.248
19.000	51.195
20.000	55.094
21.061	50.513
22.063	52.789
23.063	52.995
24.071	54.260
25.000	54.031
26.001	53.595
27.001	54.295
28.001	53.295
29.001	48.695
30.001	55.094
31.001	54.895
32.001	48.995
33.001	52.495
34.001	52.495
35.001	54.895
36.001	53.848
37.001	49.295
38.001	53.195
39.066	54.455
40.001	51.225
41.001	54.695
42.001	49.795
43.001	53.195
44.001	52.395
45.001	52.495
46.002	53.595
47.002	54.295
48.002	50.395
49.002	53.395
50.002	52.795
51.002	53.595
52.002	50.195
53.001	54.649
54.001	53.395
55.001	52.495
56.002	52.595
57.002	52.595
58.002	50.195
59.002	54.595
60.002	52.595
61.002	52.495
62.002	52.295
63.002	49.495
64.002	54.095
65.002	52.795
66.003	53.295
67.003	52.295
68.065	49.430
69.003	52.767
70.003	54.795
71.002	53.248
72.002	51.795
73.002	51.995
74.002	49.495
75.002	53.095
76.064	50.136
77.003	55.905
78.003	51.895
79.003	51.995
80.063	50.561
81.003	52.442
82.003	53.095
83.003	52.495
84.003	52.195
85.003	49.095
86.004	52.795
87.004	54.495
88.003	53.148
89.003	52.495
90.003	52.595
91.003	49.595
92.003	53.895
93.003	52.695
94.003	51.995
95.003	51.695
96.004	53.395
97.004	0.600
