Time [s]	Current [nA]
0.000	30.497
1.000	44.796
2.000	44.896
3.000	46.295
4.000	45.495
5.001	42.296
6.001	45.195
7.062	46.272
8.001	43.340
9.001	46.795
10.001	42.596
11.001	45.495
12.061	46.410
13.001	43.294
14.000	45.241
15.001	46.795
16.001	42.796
17.001	45.295
18.001	44.696
19.061	46.222
20.001	44.996
21.001	46.495
22.001	41.996
23.001	44.796
24.001	44.995
25.002	45.095
26.059	44.556
27.059	46.695
28.062	45.559
29.002	43.506
30.002	45.195
31.001	46.742
32.001	46.795
33.001	41.796
34.001	45.395
35.002	44.896
36.002	45.096
37.002	46.895
38.002	43.096
39.002	45.395
40.002	44.896
41.002	45.095
42.002	46.095
43.002	47.195
44.002	41.296
45.069	47.369
46.003	43.679
47.003	44.896
48.003	46.895
49.002	42.638
50.002	45.695
51.002	44.995
52.002	45.195
53.002	46.395
54.002	46.595
55.003	41.896
56.003	45.795
57.003	45.195
58.003	45.295
59.003	46.795
60.003	42.696
61.003	45.795
62.061	46.404
63.003	42.989
64.003	46.295
65.003	46.195
66.003	42.939
67.003	45.295
68.003	44.896
69.003	45.096
70.003	46.695
71.003	46.995
72.003	41.796
73.003	44.796
74.003	44.896
75.003	44.696
76.004	46.895
77.004	42.896
78.004	44.995
79.004	44.896
80.004	44.995
81.004	46.395
82.004	46.695
83.004	41.296
84.003	45.641
85.003	44.896
86.004	44.995
87.004	46.695
88.004	42.796
89.004	45.795
90.004	44.696
91.004	44.995
92.004	46.595
93.004	46.595
94.004	41.196
95.004	45.695
96.005	44.496
97.005	45.095
98.005	46.895
99.005	42.596
100.005	45.695
101.004	45.041
102.004	44.796
103.004	46.695
104.004	46.095
105.004	41.996
106.005	45.095
107.005	44.696
108.005	44.896
109.005	46.995
110.061	44.124
111.005	18.007
