Time [s]	Current [nA]
0.000	35.796
0.999	38.635
1.999	38.696
2.999	36.796
3.999	40.396
4.999	39.396
6.000	38.896
7.000	39.096
8.000	36.096
9.000	39.896
10.000	41.196
11.000	39.496
12.000	39.496
13.000	39.396
14.000	37.296
15.000	37.496
16.001	39.296
17.001	38.796
18.000	39.235
19.000	39.196
20.000	40.796
21.000	37.196
22.000	39.496
23.000	38.896
24.000	39.196
25.059	38.181
26.001	39.062
27.072	40.052
28.001	38.209
29.001	38.796
30.001	38.696
31.001	40.696
32.001	36.696
33.001	39.496
34.067	40.240
35.001	37.791
36.058	38.159
37.001	41.989
38.062	37.414
39.001	37.483
40.066	39.620
41.001	37.429
42.001	40.396
43.001	37.096
44.001	39.596
45.001	39.196
46.002	39.296
47.057	38.669
48.090	38.331
49.063	38.126
50.063	38.996
51.064	38.558
52.065	38.957
53.001	39.633
54.001	40.396
55.001	39.296
56.002	39.096
57.002	39.196
58.002	36.096
59.067	41.874
60.002	39.140
61.002	36.396
62.062	40.279
63.002	37.656
64.002	40.296
65.063	38.392
66.003	38.507
67.003	39.496
68.003	39.496
69.003	39.496
70.065	38.414
71.067	40.914
72.068	39.656
73.002	38.005
74.051	37.651
75.062	40.095
76.003	39.635
77.003	39.796
78.003	40.196
79.003	39.096
80.003	39.396
81.003	37.396
82.003	40.996
83.003	40.096
84.003	38.896
85.003	39.096
86.004	37.396
87.004	39.996
88.003	40.036
89.003	36.596
90.003	39.496
91.003	39.196
92.003	40.596
93.003	37.196
94.003	39.996
95.003	39.096
96.004	39.096
97.062	38.654
98.004	42.246
99.004	37.296
100.004	39.596
101.004	39.096
102.004	39.596
103.004	37.196
104.004	40.896
105.004	39.596
106.066	36.754
107.004	41.893
108.004	39.796
109.004	37.096
110.063	38.334
111.004	38.891
112.004	38.796
113.004	38.896
114.004	40.196
115.004	37.096
116.005	39.296
117.005	38.996
118.005	38.796
119.075	39.903
120.005	39.351
121.067	38.508
122.005	38.056
123.004	39.135
124.004	39.096
125.004	40.696
126.005	37.196
127.005	39.696
128.005	11.899
