Time [s]	Current [nA]
0.000	2.508
0.999	46.442
1.999	46.295
2.999	46.395
3.999	44.496
5.000	47.395
6.000	46.495
7.056	43.651
8.000	48.406
9.057	44.839
10.000	46.655
11.000	46.595
12.000	46.995
13.000	46.095
14.000	45.895
15.001	43.696
16.001	47.695
17.001	46.595
18.001	45.495
19.000	45.641
20.000	43.696
21.000	46.595
22.000	46.495
23.000	46.495
24.000	45.795
25.001	45.695
26.001	43.496
27.001	47.795
28.060	43.905
29.001	48.667
30.001	45.895
31.001	43.196
32.001	45.995
33.001	48.195
34.001	46.295
35.002	45.895
36.063	43.445
37.001	46.584
38.001	47.895
39.001	46.295
40.001	45.595
41.001	45.695
42.001	46.795
43.001	42.596
44.001	46.895
45.001	46.095
46.002	45.295
47.064	42.839
48.002	35.391
49.002	15.798
50.062	23.300
51.061	33.730
52.002	41.972
53.002	43.196
54.001	41.938
55.001	46.895
56.002	45.495
57.002	45.095
58.002	44.696
59.061	44.377
60.002	45.373
61.002	45.695
62.002	46.095
63.002	45.395
64.002	45.195
65.002	42.596
66.061	43.946
67.003	48.934
68.003	45.095
69.003	45.295
70.003	43.096
71.002	45.841
72.002	46.195
73.002	45.995
74.002	45.095
75.002	44.996
76.003	42.596
77.003	47.195
78.065	43.122
79.065	44.896
80.061	44.975
81.003	44.900
82.003	45.096
83.003	48.095
84.003	45.495
85.062	42.718
86.004	43.732
87.004	46.995
88.004	43.096
89.003	45.641
90.062	46.454
91.062	45.495
92.003	44.310
93.060	48.529
94.064	41.928
95.003	44.405
96.004	45.195
97.004	45.395
98.004	47.095
99.004	47.195
100.063	43.716
101.004	43.779
102.004	45.195
103.004	45.795
104.004	47.795
105.004	42.696
106.004	46.142
107.004	45.495
108.004	45.295
109.004	47.295
110.004	43.496
111.004	45.695
112.098	31.350
