Time [s]	Current [nA]
0.000	38.096
1.000	45.096
2.000	48.395
3.000	46.795
4.000	47.195
5.000	46.995
6.001	45.095
7.000	48.644
8.000	47.295
9.000	46.595
10.000	46.195
11.000	44.396
12.000	48.495
13.078	43.409
14.000	50.863
15.000	46.995
16.001	46.995
17.001	44.196
18.001	48.195
19.001	46.895
20.007	46.516
21.001	43.054
22.001	48.695
23.001	48.195
24.000	43.539
25.000	46.795
26.001	46.895
27.001	46.695
28.001	47.995
29.001	48.795
30.001	43.496
31.001	46.395
32.001	45.495
33.001	15.798
34.001	21.398
35.001	30.797
36.002	39.596
37.002	44.296
38.002	45.195
39.002	48.495
40.064	44.817
41.002	45.838
42.001	46.542
43.001	46.495
44.001	46.095
45.001	44.196
46.002	39.496
47.002	41.596
48.002	41.396
49.002	41.596
50.002	43.196
51.002	43.896
52.002	38.596
53.068	42.866
54.002	39.825
55.103	41.087
56.003	43.662
57.003	39.896
58.003	41.696
59.002	41.437
60.064	43.122
61.061	39.113
62.002	43.354
63.002	43.196
64.002	43.096
65.002	39.396
66.003	42.096
67.003	44.296
68.054	41.766
69.003	41.408
70.003	42.696
71.003	43.996
72.003	45.095
73.003	44.896
74.003	41.396
75.003	44.096
76.070	44.742
77.003	42.225
78.003	45.595
79.003	45.695
80.003	41.496
81.003	44.196
82.003	44.796
83.003	46.295
84.003	45.795
85.069	43.939
86.004	43.311
87.004	44.596
88.004	44.296
89.004	45.995
90.004	46.095
91.004	41.196
92.004	44.596
93.004	44.196
94.003	44.940
95.003	47.095
96.004	42.796
97.004	45.195
98.004	45.096
99.004	44.796
100.004	46.395
101.004	47.195
102.004	41.396
103.004	45.995
104.004	44.995
105.004	45.495
106.005	47.295
107.005	46.595
108.005	42.596
109.005	45.895
110.005	45.895
111.005	47.095
112.004	43.039
113.177	26.084
