Time [s]	Current [nA]
0.000	25.991
1.000	59.194
2.001	58.735
2.995	56.031
3.940	62.851
5.001	58.579
6.007	58.443
7.007	59.094
8.006	60.354
8.941	58.925
10.003	58.280
10.997	53.113
11.999	57.679
12.999	57.894
14.043	57.466
15.007	61.572
16.004	54.859
16.997	58.705
17.997	57.494
18.996	58.052
20.004	60.014
20.999	53.864
22.001	58.577
23.003	57.878
24.001	58.511
25.043	56.575
25.942	61.062
27.001	56.746
27.942	56.955
29.003	59.749
29.942	54.947
31.000	56.516
31.998	60.415
33.029	57.220
34.008	60.157
35.005	58.428
35.943	56.071
36.998	57.625
38.005	60.371
39.000	52.658
39.999	58.453
41.000	57.637
41.999	59.153
42.996	54.257
44.025	62.579
45.000	53.943
46.002	57.936
47.004	57.978
48.005	60.434
49.002	54.358
50.003	58.935
51.004	57.836
52.004	58.694
52.999	54.969
54.021	57.137
55.003	61.196
56.004	58.294
57.003	57.952
58.008	57.805
59.004	55.517
60.008	61.348
60.999	54.283
61.997	58.812
62.999	58.178
64.027	58.165
65.003	61.264
66.007	60.811
67.000	53.066
68.000	57.494
69.002	57.280
70.011	59.162
70.998	55.516
72.001	57.920
72.943	61.034
74.002	54.385
74.943	61.843
76.004	56.975
77.001	53.956
78.007	57.648
79.002	57.180
80.002	57.494
81.005	59.017
81.998	54.476
82.944	60.776
84.006	54.138
85.002	56.822
86.003	57.394
86.999	6.626
