Time [s]	Current [nA]
0.000	6.491
0.995	43.815
2.022	14.409
3.000	9.304
3.997	20.861
4.997	26.824
5.997	36.196
6.997	38.696
7.996	48.744
8.935	49.196
9.935	49.595
10.998	44.492
12.001	48.549
13.005	48.601
13.995	50.601
14.934	47.706
15.996	45.801
16.996	47.695
17.998	48.798
18.995	51.249
19.991	46.883
21.017	53.893
21.997	46.016
22.997	50.795
23.997	50.295
25.001	51.540
25.998	46.435
26.998	50.095
27.999	50.445
28.998	50.846
29.997	51.747
31.017	51.858
31.997	46.220
32.997	51.395
33.997	52.195
34.994	51.449
35.998	55.827
36.994	49.794
37.994	52.795
38.994	53.895
39.994	53.995
40.985	53.072
42.043	58.501
43.000	52.868
44.001	54.340
45.000	55.150
46.002	54.740
46.993	51.357
47.996	57.322
48.996	55.994
49.997	54.540
50.998	54.940
52.038	55.187
52.998	52.703
53.998	57.894
55.001	56.525
56.004	57.080
57.002	56.507
57.992	53.429
58.994	58.477
59.999	57.308
60.998	57.752
61.998	57.494
63.034	55.979
63.999	56.367
65.002	60.014
66.004	57.337
66.999	56.276
67.992	51.757
68.992	58.994
69.999	60.073
71.023	58.881
71.999	52.761
72.999	56.994
73.999	57.494
75.002	59.615
76.000	53.555
77.000	55.794
77.999	56.050
79.000	56.238
79.938	56.391
81.021	59.274
82.001	51.730
83.000	56.451
83.999	55.650
84.999	56.994
86.004	58.859
87.000	53.408
88.000	54.895
89.001	55.439
89.996	55.773
91.004	58.228
92.018	57.095
92.997	53.212
93.999	58.577
95.000	56.438
96.004	57.023
96.992	16.294
