Time [s]	Current [nA]
0.000	42.377
0.995	53.663
1.997	57.978
2.997	58.394
3.997	27.797
5.020	15.067
5.999	30.130
6.998	38.234
7.999	50.045
8.999	53.395
9.998	59.654
10.997	62.957
12.003	63.016
13.013	55.539
14.001	61.431
14.999	58.912
15.999	59.554
16.999	61.494
17.996	57.366
18.998	59.774
19.996	60.816
20.940	63.235
21.994	58.723
23.009	62.063
23.940	58.104
24.999	55.991
25.999	59.554
26.999	58.994
27.996	60.475
29.003	62.059
29.999	54.412
31.000	59.734
31.999	58.453
32.998	59.554
34.021	57.179
34.998	55.777
35.999	58.094
37.000	56.937
38.000	57.394
38.993	58.906
40.003	58.707
40.999	52.605
41.999	56.994
42.999	56.994
44.018	56.324
45.001	60.523
45.997	53.864
46.999	56.881
48.000	56.937
49.000	55.194
49.995	58.286
51.002	59.279
51.999	52.954
52.999	57.494
53.941	61.459
55.019	54.034
56.003	61.681
57.001	54.403
58.000	57.752
59.000	56.894
60.000	57.994
61.002	61.271
61.995	55.785
63.031	63.121
64.004	54.054
64.999	58.286
65.998	58.110
67.004	59.040
67.993	53.887
69.002	56.783
70.002	56.594
71.000	57.008
72.003	59.914
73.013	53.955
74.007	60.155
75.007	58.994
76.004	58.629
77.004	57.994
78.004	60.094
78.992	55.764
80.003	58.056
80.943	55.739
82.003	61.315
83.000	45.432
84.022	44.125
84.943	43.644
86.005	44.011
87.003	42.681
88.003	42.996
89.005	42.411
90.054	19.636
