Time [s]	Current [nA]
0.000	42.393
0.997	61.779
2.003	59.636
3.000	59.573
4.000	59.394
4.992	55.942
6.003	61.083
7.017	59.757
8.003	61.860
9.003	59.594
10.000	59.172
10.995	55.974
11.996	61.233
13.003	59.974
14.003	58.994
15.003	59.494
16.001	55.762
17.034	57.981
18.004	62.571
19.002	60.315
19.995	53.268
20.994	58.853
21.996	60.772
23.003	61.066
24.001	53.301
25.000	57.652
26.001	57.594
27.012	59.242
28.021	57.972
29.001	56.627
29.997	58.829
30.996	58.453
32.000	58.460
32.996	54.814
33.997	60.134
35.003	58.742
36.002	57.109
37.006	57.763
38.036	56.499
39.002	56.206
40.004	61.072
40.995	53.779
41.997	57.080
42.939	62.308
43.999	57.541
44.995	54.513
46.019	56.690
47.002	58.794
48.002	57.094
49.000	57.409
50.002	61.271
50.991	55.000
52.002	57.066
53.002	57.094
54.001	57.051
54.996	54.065
56.005	58.030
57.022	56.632
58.006	58.327
59.006	56.694
60.006	57.294
61.001	53.462
62.005	58.759
63.003	58.211
63.996	51.757
64.995	56.851
65.998	58.976
67.018	58.622
68.004	52.327
69.003	56.951
70.003	55.794
71.003	56.094
72.006	59.117
73.004	53.702
74.001	57.366
74.999	56.808
75.997	57.467
77.011	58.870
78.016	51.239
79.003	61.493
80.007	58.460
81.003	57.123
81.998	51.854
83.000	59.475
83.997	54.358
85.003	57.350
85.942	60.548
86.994	6.178
