Time [s]	Current [nA]
0.000	19.123
1.002	58.477
2.028	56.232
2.996	52.784
4.000	56.468
4.997	55.762
5.999	55.239
6.992	52.663
7.997	56.711
8.998	56.837
9.938	53.080
10.999	57.487
12.018	57.011
12.996	51.631
13.999	57.522
14.998	55.850
15.999	53.995
16.998	54.249
17.997	51.146
18.992	56.276
19.999	55.407
20.997	54.203
21.939	52.861
23.016	55.148
23.996	52.036
24.999	56.126
26.000	54.095
26.998	54.103
27.939	52.173
29.000	57.016
29.994	50.900
31.021	52.283
32.005	55.279
32.999	53.616
34.000	53.441
34.995	50.950
35.993	55.160
37.000	54.215
37.999	53.548
38.999	53.395
40.009	55.044
41.016	49.747
42.001	55.223
43.005	52.784
43.999	53.315
44.939	51.271
45.998	52.736
47.001	38.481
48.005	23.902
49.007	37.521
49.940	45.547
50.997	51.840
52.025	53.399
53.001	58.191
54.000	52.647
55.000	52.995
56.002	53.241
57.004	54.486
57.993	50.147
59.001	53.963
60.000	53.148
60.999	53.448
62.032	52.754
62.997	51.083
63.998	55.839
65.001	53.733
65.941	51.326
67.002	55.131
67.998	50.999
68.941	58.213
70.005	51.499
71.002	53.355
72.006	52.385
73.015	53.315
74.004	51.057
75.001	55.661
76.006	53.481
77.001	53.763
78.001	52.695
79.003	55.084
79.997	50.297
81.015	53.335
82.006	54.989
83.001	53.964
84.001	53.495
84.997	50.999
85.942	54.232
87.007	55.394
88.002	53.362
89.003	52.442
89.998	49.844
91.021	54.149
92.004	55.132
93.007	53.434
94.001	48.285
