Time [s]	Current [nA]
0.000	17.839
1.002	48.698
2.001	49.745
3.000	50.245
3.991	46.817
5.001	52.027
6.000	49.845
7.002	50.494
8.002	49.895
9.002	49.795
9.993	47.624
10.991	51.097
12.001	50.193
12.998	49.443
13.997	49.745
14.993	46.381
16.022	48.341
16.999	53.014
18.001	50.095
19.003	50.095
20.003	49.495
20.999	46.682
21.997	51.297
23.003	49.995
23.998	49.744
24.998	49.995
26.020	50.632
26.999	45.246
28.002	51.341
28.999	49.644
29.937	47.117
30.994	45.312
31.997	50.444
32.999	51.192
33.999	44.196
34.999	48.395
36.001	48.147
37.029	46.591
37.938	50.930
38.995	46.826
40.000	47.955
41.000	48.095
42.000	47.695
43.003	49.945
43.996	45.917
45.018	47.302
46.000	49.486
47.001	47.947
48.001	47.995
48.996	49.342
49.993	46.034
51.000	48.655
52.000	47.895
53.000	47.195
53.999	49.945
54.999	43.896
56.002	48.798
57.001	37.133
58.001	15.998
59.001	25.997
59.999	37.872
60.994	40.398
62.001	45.775
63.000	47.543
64.000	47.095
64.999	49.645
66.025	46.922
66.996	45.516
68.001	47.458
68.996	47.231
70.001	47.358
71.000	49.645
72.001	49.246
73.001	44.296
74.001	48.095
75.001	48.995
76.024	49.017
76.940	49.013
77.940	49.595
79.001	46.555
80.000	48.143
81.000	48.195
81.998	45.587
82.998	50.095
84.004	48.305
85.003	48.043
86.005	48.746
86.940	46.626
87.940	50.695
89.005	47.695
89.940	47.482
90.940	47.895
92.004	49.995
92.940	47.538
93.940	45.395
95.028	48.385
96.003	50.149
96.940	45.993
97.998	45.175
98.995	49.343
100.002	49.846
101.002	44.096
101.998	49.192
103.001	48.649
104.000	50.946
105.224	29.596
