Time [s]	Current [nA]
0.000	23.989
0.995	60.295
1.999	62.842
3.006	63.052
4.021	60.684
4.944	59.257
6.002	56.664
7.010	65.073
8.004	57.037
9.018	62.321
9.999	55.856
11.002	59.117
12.006	65.631
12.999	57.396
13.944	59.782
15.033	62.218
15.945	60.740
17.004	57.029
17.945	63.331
18.999	53.979
20.004	61.387
21.004	60.494
21.999	58.889
22.999	59.294
24.010	61.517
25.029	54.415
26.005	62.596
27.010	60.094
27.945	57.855
29.006	60.974
30.008	61.471
31.004	56.119
32.003	60.154
33.002	58.953
34.001	59.353
35.012	62.469
36.026	59.363
37.001	57.225
38.008	59.577
39.000	59.974
39.999	59.153
41.012	23.690
41.996	27.131
43.004	40.968
44.003	52.247
45.008	57.863
46.045	59.203
46.946	64.699
48.011	58.867
49.006	60.798
50.007	58.536
51.004	58.470
52.007	62.407
53.004	56.263
54.031	57.930
55.008	63.108
56.002	60.256
56.998	53.709
58.002	61.050
59.008	60.829
60.000	54.329
61.002	58.477
62.003	58.436
63.004	60.733
64.011	61.761
65.017	58.203
66.005	53.841
67.002	57.968
68.004	58.078
68.947	64.681
70.008	58.147
71.002	53.516
72.011	62.531
73.003	52.515
74.008	57.905
75.045	46.907
76.003	46.029
77.006	47.353
77.999	48.636
79.005	47.610
80.007	50.095
81.008	51.044
82.008	44.796
83.003	48.940
84.002	49.845
85.015	50.193
86.015	50.295
87.005	48.177
88.008	46.556
