Time [s]	Current [nA]
0.000	15.180
0.992	54.027
1.992	54.895
2.992	54.695
3.990	58.912
4.986	52.706
5.931	59.316
6.993	52.820
7.992	56.050
8.990	58.110
9.988	53.101
11.003	55.659
11.992	56.819
12.993	55.938
13.992	55.650
14.930	56.817
15.993	54.608
16.993	55.994
17.992	55.950
18.989	56.163
19.988	53.548
21.018	55.528
21.991	59.912
22.996	57.109
23.996	56.694
24.992	56.721
25.988	53.161
26.988	57.894
27.997	57.279
28.997	56.494
29.997	55.694
31.015	57.755
31.997	51.217
32.992	58.788
33.997	47.756
34.997	45.395
35.993	44.518
36.990	41.019
37.991	45.550
38.997	45.820
39.997	45.695
40.997	46.395
42.033	44.687
42.993	44.475
43.992	48.644
44.989	42.724
45.988	46.388
46.994	45.125
47.992	48.192
48.989	44.329
49.995	47.510
50.993	47.791
51.994	48.047
52.994	49.195
53.992	51.598
54.988	45.578
55.995	47.808
56.990	47.834
57.994	47.306
58.993	49.545
60.010	49.061
60.994	43.695
61.995	48.347
62.932	52.503
63.991	45.982
64.994	52.138
65.991	46.080
66.993	49.895
67.994	49.146
68.994	49.395
69.986	46.971
71.019	49.850
71.994	54.764
72.993	50.646
73.994	51.843
74.993	51.747
75.990	47.987
76.989	53.448
77.993	52.684
78.994	52.742
79.993	52.547
81.034	53.213
81.933	53.054
82.993	52.353
83.999	53.275
84.933	50.851
85.994	53.957
86.990	50.597
87.992	54.785
89.000	54.756
89.934	51.815
90.994	54.711
92.023	52.181
92.994	51.591
93.934	54.037
94.999	55.112
95.995	54.668
97.050	33.172
