Time [s]	Current [nA]
0.000	52.103
0.940	58.718
1.993	58.968
2.999	62.817
4.005	60.233
5.004	59.914
6.006	60.373
6.940	59.309
7.997	59.691
8.999	63.367
10.001	61.571
10.940	58.354
12.000	63.107
12.996	57.424
13.996	63.494
15.022	61.847
16.006	64.424
17.006	62.594
18.006	61.994
18.999	58.907
19.999	65.193
21.003	63.241
22.002	62.156
23.002	63.094
23.997	58.788
25.014	63.872
25.941	63.640
27.006	65.721
27.941	60.636
29.002	65.309
29.941	63.572
30.997	61.168
31.941	61.540
32.941	62.294
34.002	63.990
34.941	61.762
35.942	63.094
37.002	62.352
37.942	60.845
39.007	64.594
39.942	60.850
40.993	62.220
42.000	64.542
43.002	64.165
44.002	62.894
45.003	62.894
46.024	64.146
47.004	58.361
48.003	65.559
49.006	62.706
50.003	61.879
51.003	62.194
52.004	64.529
53.001	59.472
54.002	64.929
55.003	62.694
56.003	62.794
57.026	61.480
58.001	60.199
59.003	65.363
60.003	64.594
61.002	63.457
61.942	61.590
62.996	62.517
64.001	64.670
65.026	63.080
66.007	66.150
67.004	64.186
67.943	62.294
68.997	63.087
69.999	65.562
71.003	64.037
72.002	63.457
73.002	63.594
73.999	59.172
75.005	64.109
76.007	63.230
77.004	63.685
78.003	62.957
78.943	59.675
79.996	17.092
