Time [s]	Current [nA]
0.000	12.517
1.014	50.192
1.995	51.065
2.994	55.250
3.998	54.277
4.998	54.095
6.000	53.142
7.002	56.881
7.999	50.547
8.940	52.067
10.006	56.655
11.000	54.823
11.999	55.150
13.002	57.522
13.999	51.550
15.001	55.938
15.999	54.604
17.004	55.218
18.003	59.053
19.008	51.537
20.004	56.119
21.001	57.567
21.940	53.456
22.999	57.596
23.994	53.060
24.999	58.402
26.000	56.694
26.995	55.974
27.999	55.572
29.003	58.859
30.041	56.834
30.995	53.559
31.999	55.373
32.990	55.797
33.997	56.300
35.003	60.233
36.001	53.956
36.999	58.411
38.000	56.937
39.000	58.094
40.040	58.071
41.007	62.455
42.000	55.382
43.000	59.594
43.996	59.030
44.997	58.536
45.996	56.507
47.000	60.850
48.004	59.954
48.999	59.693
49.999	60.494
51.024	58.823
51.998	59.440
53.000	62.369
54.007	60.669
55.003	61.942
56.001	60.074
56.995	58.042
58.000	62.581
59.022	60.561
60.003	62.787
61.003	59.894
61.999	60.938
63.004	63.775
64.001	57.065
64.999	62.318
66.000	60.294
67.001	60.533
68.005	64.735
69.004	56.951
69.944	66.164
70.999	59.331
72.001	60.573
72.997	61.339
74.005	64.081
75.000	58.185
75.998	62.481
77.000	61.571
78.001	61.832
79.005	64.237
80.026	55.234
81.004	65.944
82.001	62.682
82.999	60.715
84.002	60.911
85.006	65.133
86.037	40.773
