Time [s]	Current [nA]
0.000	48.997
0.993	51.959
1.992	51.246
3.002	50.292
3.990	48.882
4.983	52.966
5.993	50.243
6.994	50.544
7.990	51.501
8.989	48.243
9.991	52.789
11.000	51.234
11.993	52.059
12.992	51.046
13.993	50.045
14.986	48.031
15.984	52.653
16.993	50.837
17.990	50.647
18.994	49.796
19.991	47.438
21.006	51.325
21.996	52.116
22.998	50.893
23.992	50.699
24.993	50.844
25.989	48.337
26.993	52.385
27.993	51.795
28.994	50.345
29.992	51.197
30.982	48.682
32.023	48.986
32.993	55.046
33.993	51.695
34.933	49.782
35.934	51.095
36.934	52.495
37.993	50.514
38.990	53.054
39.993	51.341
40.992	51.446
42.041	49.757
42.991	49.574
43.992	53.841
44.992	51.695
45.934	49.411
46.934	51.095
47.990	50.184
48.993	53.036
49.994	52.842
50.994	51.895
51.993	51.046
53.030	49.850
53.991	50.879
54.990	52.848
55.995	51.887
56.997	50.594
57.991	51.906
58.997	53.374
59.993	47.887
61.014	50.436
61.997	52.487
62.991	50.196
63.994	51.441
64.990	48.489
65.995	53.182
66.995	50.995
67.991	50.497
68.995	50.792
69.997	53.089
70.994	47.939
72.012	51.075
73.000	52.525
73.996	51.802
74.995	50.746
75.992	48.991
76.995	53.534
77.997	52.091
78.997	51.995
79.997	51.995
80.990	49.945
81.935	56.079
82.990	49.853
83.991	51.643
84.991	50.695
85.995	50.145
86.990	48.437
87.985	54.567
88.993	51.384
89.996	50.643
90.994	50.997
91.998	53.082
93.013	45.414
93.993	55.199
94.998	51.338
95.995	50.397
96.998	50.942
97.989	0.605
