Time [s]	Current [nA]
0.000	27.654
1.008	53.467
2.004	48.590
3.002	52.299
4.002	50.995
5.008	50.940
6.010	53.987
7.025	46.301
8.006	53.104
9.006	51.395
10.002	51.099
11.004	50.993
11.946	51.587
13.000	50.374
14.005	51.040
15.002	51.200
15.947	49.096
17.010	55.121
18.019	45.783
19.002	54.118
20.007	51.542
21.003	51.205
22.003	50.700
23.010	53.426
24.005	48.543
25.004	52.252
25.998	51.207
27.005	50.943
28.023	51.572
29.002	49.132
30.002	53.100
31.006	51.594
31.997	51.766
33.000	51.246
34.000	48.800
35.000	54.000
36.016	51.181
37.006	52.020
37.945	50.160
39.004	53.163
40.000	48.695
41.001	53.347
42.004	51.645
43.002	51.403
44.000	51.503
45.003	48.853
46.000	53.862
47.025	50.341
48.010	53.299
49.010	51.200
50.005	51.156
50.994	48.837
52.004	52.673
53.003	52.452
54.003	50.800
54.999	51.205
56.002	49.053
57.031	51.118
58.003	53.909
59.004	51.948
60.002	50.802
60.994	51.411
62.002	48.710
62.999	53.761
64.003	51.494
64.998	51.256
65.999	51.249
67.020	52.791
68.009	46.815
68.944	57.112
70.005	49.293
70.944	48.882
71.944	50.800
73.006	54.896
73.999	48.842
75.003	51.195
75.998	51.055
76.997	51.251
78.035	50.385
79.000	49.948
79.997	53.059
80.999	51.297
82.000	50.649
82.999	51.051
84.005	53.280
85.001	48.293
86.014	50.839
87.002	51.417
88.000	50.902
88.998	50.902
89.997	48.348
90.995	53.707
92.002	51.241
93.001	50.250
94.000	50.751
95.004	53.088
96.001	47.643
97.016	50.542
97.942	11.987
