Time [s]	Current [nA]
0.000	45.578
0.995	49.543
1.999	51.788
2.995	45.779
3.995	50.195
4.937	47.023
6.004	51.027
7.000	46.180
8.020	48.230
9.001	52.492
9.996	44.820
10.995	48.944
12.000	48.950
12.990	50.601
13.999	50.342
14.995	44.373
15.995	48.744
16.994	48.644
18.023	47.226
18.996	51.485
20.000	51.290
20.996	44.674
21.994	48.592
23.001	52.726
23.997	45.678
25.001	51.540
25.995	44.865
26.997	48.798
28.004	48.952
29.020	47.928
30.005	52.279
30.996	46.413
32.002	49.399
32.996	49.492
33.938	47.129
34.994	47.912
35.939	53.702
37.016	45.399
38.004	50.299
39.004	48.495
40.004	48.695
41.001	46.334
42.005	51.091
43.004	49.144
44.004	48.695
45.001	49.343
45.999	45.833
47.022	49.360
48.003	51.065
49.001	44.985
50.001	49.195
51.001	48.695
52.005	51.389
53.001	45.879
53.992	49.743
54.999	48.456
55.998	48.693
57.008	50.787
58.024	43.303
59.005	52.798
60.002	49.945
60.996	44.060
61.994	48.592
62.998	16.532
64.002	15.835
64.993	23.913
65.996	33.230
66.995	40.737
68.027	48.057
68.996	45.197
70.002	51.784
70.940	47.970
71.940	49.295
73.002	50.654
73.999	46.334
75.002	52.437
76.023	49.309
77.004	45.459
78.000	49.694
78.992	50.297
80.003	50.935
81.000	46.234
81.998	49.895
82.998	48.995
83.995	49.443
84.940	48.884
85.997	49.237
87.025	47.466
88.001	51.224
89.001	48.995
90.003	48.598
90.998	46.729
92.003	50.642
93.002	50.145
94.001	48.744
95.001	48.895
95.999	46.234
97.026	48.194
97.997	51.076
98.942	47.403
99.999	50.326
100.999	48.195
101.996	46.334
102.941	53.434
103.999	47.160
104.994	0.502
