Time [s]	Current [nA]
0.000	22.986
1.017	53.485
1.999	48.264
2.995	52.806
3.995	51.995
4.995	51.995
5.998	54.785
6.936	51.914
7.994	49.900
8.997	51.241
9.996	52.647
10.995	48.043
12.017	57.235
12.992	49.534
13.997	51.736
14.991	51.705
15.996	51.290
16.999	54.631
17.996	48.842
18.937	51.111
19.991	53.031
20.996	51.338
22.036	50.860
23.002	55.585
23.994	48.886
24.995	52.143
25.993	51.549
26.996	51.241
28.009	53.795
28.995	49.184
30.006	51.924
31.000	51.806
31.999	51.246
33.007	50.789
33.988	49.944
34.996	52.872
35.999	51.791
36.995	51.300
37.998	50.643
39.000	53.887
39.997	48.140
41.010	51.426
42.002	53.120
43.002	51.795
43.998	52.003
44.996	48.492
46.006	54.108
46.996	47.066
47.993	50.948
48.994	51.044
49.993	53.148
51.036	50.426
52.000	54.351
52.996	47.084
53.996	51.095
55.005	50.639
56.000	54.019
56.996	47.887
57.997	51.543
58.938	53.980
59.995	48.056
60.993	50.897
62.026	47.140
62.995	47.570
64.009	47.924
65.000	49.036
65.939	51.487
66.939	45.695
68.000	51.456
68.996	44.373
69.939	51.214
70.939	47.695
72.023	45.567
72.939	54.471
74.000	49.382
74.995	45.121
75.995	49.044
76.995	49.495
77.997	50.294
79.001	51.788
79.997	45.277
80.997	49.195
81.997	49.495
83.021	48.726
84.004	53.199
84.997	46.521
86.001	50.045
86.998	49.042
87.996	49.093
88.998	51.192
90.005	51.931
91.012	50.541
91.940	49.779
92.999	47.210
93.996	50.246
95.000	52.086
95.993	47.777
96.990	50.145
97.998	49.598
98.952	24.631
