Time [s]	Current [nA]
0.000	47.776
1.003	54.930
1.995	52.616
2.941	60.142
3.998	52.880
4.997	54.249
5.997	54.649
7.004	57.095
8.045	54.654
8.998	52.041
10.004	55.362
10.941	52.289
11.999	55.666
13.002	56.924
13.996	51.906
15.003	55.263
16.000	54.659
17.000	53.895
17.942	53.710
19.008	52.528
20.002	57.137
21.004	54.785
22.001	54.257
23.004	54.332
23.999	51.553
25.001	56.138
26.000	55.050
26.999	53.949
27.999	54.195
29.019	53.328
29.998	52.702
30.996	56.307
32.001	54.522
32.999	53.502
33.996	54.057
35.005	56.344
35.943	53.939
37.024	50.596
38.008	55.889
39.004	53.810
40.000	53.007
41.006	56.157
41.998	51.104
43.002	54.477
43.999	53.355
45.000	53.541
46.000	51.346
47.016	54.916
48.004	55.662
49.005	54.041
50.004	53.048
50.999	53.663
52.006	56.002
53.003	50.747
53.998	54.266
54.999	53.241
56.005	53.129
57.006	56.538
58.050	53.730
59.000	51.258
60.005	53.626
60.997	54.027
61.997	53.595
63.005	55.848
64.002	50.547
65.000	54.604
66.000	53.448
67.001	53.741
68.036	54.004
69.000	50.721
70.001	56.238
71.006	54.422
72.005	53.848
73.005	53.795
74.000	51.050
75.003	55.229
76.004	55.095
77.005	53.441
78.001	53.810
79.032	52.371
80.002	53.294
80.999	56.063
82.006	53.917
83.002	54.011
84.001	54.049
85.006	56.313
86.005	50.897
87.026	53.570
88.007	55.856
89.007	53.195
90.003	54.011
91.007	56.269
92.134	28.125
