Time [s]	Current [nA]
0.000	17.107
1.000	52.400
1.938	50.853
3.022	51.753
4.000	46.421
5.003	50.449
5.996	51.057
6.999	53.340
7.996	47.643
8.997	51.149
9.999	49.501
10.937	48.721
11.994	48.912
12.996	51.397
14.023	49.757
15.003	52.959
15.999	51.205
16.993	45.976
17.996	52.044
18.993	48.646
19.996	51.047
20.994	50.501
21.993	50.551
22.998	52.836
24.028	50.291
24.993	48.705
25.998	50.746
26.993	50.754
27.992	50.751
28.991	52.352
29.999	53.175
30.993	46.579
31.995	50.499
32.993	50.902
34.006	51.728
35.016	51.188
35.994	49.693
36.998	50.797
37.993	50.854
38.992	50.751
39.994	52.295
40.990	49.498
41.997	51.142
42.935	54.051
43.992	48.250
45.028	49.324
45.997	55.418
46.990	48.439
47.993	51.147
48.991	51.202
49.993	50.898
50.987	53.119
51.997	53.069
53.013	50.984
53.993	46.939
54.993	51.000
55.993	51.000
57.004	52.522
57.990	49.391
58.992	51.198
59.992	50.800
60.992	51.200
61.993	52.248
62.989	49.197
64.021	55.620
64.996	47.487
65.993	51.354
66.992	51.852
68.001	53.221
68.990	48.635
69.993	51.446
70.993	50.800
71.994	50.849
72.988	48.089
74.007	51.227
74.994	53.495
75.998	34.263
76.997	16.116
77.994	26.680
78.992	35.070
79.991	44.945
80.994	47.458
81.993	48.048
82.992	50.350
83.989	47.342
85.012	50.342
85.993	54.842
86.997	50.498
87.993	50.502
88.992	50.551
89.990	48.096
90.987	52.558
91.993	51.590
92.993	50.200
93.991	50.401
95.015	49.902
95.990	48.615
96.992	52.595
97.992	50.800
98.991	50.250
99.991	50.300
101.030	18.094
