Time [s]	Current [nA]
0.000	16.871
0.938	65.878
1.937	59.353
3.001	66.065
3.937	60.891
4.998	66.440
5.938	63.040
7.003	62.060
7.938	61.491
8.938	63.594
9.938	62.994
11.038	64.993
11.996	60.224
12.938	64.006
13.938	64.394
14.938	63.694
15.939	64.194
16.939	60.394
17.939	65.493
18.939	65.094
19.938	64.158
20.938	63.994
21.938	64.494
23.004	64.252
23.938	65.197
24.938	65.194
25.939	64.494
26.939	64.594
27.939	61.494
28.997	63.982
30.015	64.041
30.939	65.361
31.939	64.894
33.005	66.879
33.997	61.687
34.994	67.195
35.940	63.486
36.939	65.359
38.005	67.066
38.939	65.732
39.951	66.891
40.939	61.634
41.939	66.093
43.001	67.884
43.939	62.787
44.939	67.693
45.940	62.294
46.940	66.293
47.940	65.793
48.940	65.393
50.006	64.065
50.940	63.163
52.001	64.273
52.940	69.855
53.940	65.493
54.939	65.759
55.940	61.794
57.000	64.239
57.999	66.260
58.940	63.118
60.000	66.880
60.940	63.292
61.940	68.093
62.940	67.193
64.006	62.939
64.940	62.949
65.941	65.193
66.941	67.393
67.941	29.997
69.008	35.048
69.941	44.047
70.941	53.795
71.940	60.354
72.940	58.894
73.940	67.993
74.940	66.093
75.997	62.210
76.941	69.908
77.941	67.893
79.055	49.905
