Time [s]	Current [nA]
0.000	10.607
1.000	68.593
2.000	64.094
3.055	63.690
4.000	70.575
5.000	66.893
6.001	63.394
7.064	71.112
8.001	64.134
9.001	68.193
10.001	66.793
11.001	66.693
12.000	63.457
13.000	69.493
14.000	67.093
15.000	66.893
16.001	66.793
17.001	63.094
18.102	69.112
19.001	67.068
20.001	62.594
21.001	66.993
22.062	69.833
23.058	63.347
24.063	70.043
25.059	60.898
26.057	66.426
27.058	66.727
28.090	66.369
29.001	75.294
30.001	63.494
31.063	69.861
32.056	60.518
33.001	70.469
34.001	69.893
35.064	66.566
36.059	60.798
37.002	71.149
38.057	63.216
39.002	71.104
40.062	65.937
41.064	70.452
42.057	61.021
43.002	70.892
44.002	67.093
45.002	63.794
46.003	69.693
47.002	68.261
48.002	67.493
49.064	63.365
50.064	67.693
51.002	68.223
52.002	70.093
53.061	63.733
54.002	71.194
55.002	26.197
56.003	29.297
57.073	40.930
58.003	50.855
59.003	58.394
60.003	60.794
61.003	68.093
62.003	70.793
63.003	65.193
64.060	65.651
65.002	72.498
66.003	68.593
67.063	66.597
68.003	64.143
69.003	70.593
70.003	66.993
71.003	67.493
72.003	67.293
73.003	64.694
74.003	70.693
75.003	62.094
76.004	66.593
77.056	41.061
