Time [s]	Current [nA]
0.000	5.693
1.000	65.893
2.084	66.045
3.000	63.094
4.000	63.794
5.000	63.294
6.001	66.593
7.001	62.294
8.001	66.093
9.059	61.242
10.057	65.124
11.000	65.105
12.000	65.993
13.060	62.352
14.057	64.788
15.000	68.180
16.001	63.994
17.001	65.893
18.064	64.058
19.001	63.387
20.001	64.694
21.001	64.694
22.001	60.394
23.094	65.867
24.001	66.587
25.001	64.494
26.059	60.543
27.002	67.756
28.001	61.355
29.001	66.893
30.062	61.540
31.001	67.725
32.058	60.164
33.074	65.151
34.001	64.503
35.063	63.330
36.002	68.577
37.002	64.494
38.002	64.694
39.002	61.194
40.059	62.340
41.002	69.028
42.002	64.294
43.002	63.894
44.002	64.594
45.001	61.155
46.002	66.793
47.002	64.794
48.002	63.194
49.002	63.994
50.002	66.093
51.002	61.194
52.002	64.993
53.002	63.994
54.002	63.794
55.060	61.394
56.003	70.194
57.003	60.494
58.003	65.293
59.003	63.894
60.003	64.394
61.003	60.694
62.003	66.693
63.002	64.458
64.002	64.494
65.002	64.294
66.003	64.294
67.003	61.294
68.066	68.667
69.003	62.854
70.003	63.894
71.003	63.594
72.003	61.194
73.003	64.993
74.003	66.693
75.003	64.394
76.004	64.294
77.004	63.994
78.149	43.576
