Time [s]	Current [nA]
0.000	47.523
0.941	67.262
1.941	63.794
2.999	63.321
3.996	60.375
4.999	64.101
5.998	63.621
6.941	67.013
7.941	60.394
8.941	65.193
9.941	63.594
10.941	63.394
11.999	58.973
12.999	61.994
13.999	65.093
14.941	63.900
15.997	59.994
16.942	66.343
18.000	59.162
18.942	69.101
19.942	57.894
21.009	66.254
21.942	60.444
22.942	62.594
23.999	59.313
24.998	65.759
25.999	59.594
26.942	66.801
27.942	62.194
28.942	62.894
29.942	58.494
30.942	63.994
31.942	65.793
33.000	59.824
33.942	66.872
34.942	62.794
35.943	58.694
36.943	64.794
37.943	63.094
38.943	61.794
40.001	58.595
40.942	67.793
41.998	60.316
43.004	65.103
43.942	61.295
44.942	62.094
46.008	64.407
46.943	57.107
47.943	64.594
48.943	63.094
49.943	61.594
50.943	61.794
51.943	62.094
52.943	59.394
53.943	64.594
54.943	62.794
55.944	61.794
56.944	61.394
57.944	64.394
59.005	61.822
59.943	59.802
61.005	58.939
62.005	61.794
63.005	61.994
63.943	63.000
64.998	61.037
65.944	66.237
66.944	61.794
67.944	62.294
69.005	60.503
70.024	65.057
70.944	60.972
72.006	59.128
72.944	66.091
73.999	59.331
74.944	63.380
75.944	58.753
76.944	35.996
77.944	44.996
78.944	54.495
79.944	54.795
81.021	17.361
