Time [s]	Current [nA]
0.000	47.648
1.006	61.326
1.950	65.354
3.010	61.126
4.009	64.458
5.014	55.074
5.951	65.842
6.951	61.794
7.951	58.494
8.951	59.094
9.951	61.094
10.951	62.094
12.016	62.717
12.951	59.032
14.013	59.975
14.950	62.640
16.009	58.879
16.951	64.643
18.009	57.461
18.951	61.247
20.023	64.732
20.951	58.938
22.014	57.567
23.013	60.755
24.013	60.694
24.951	62.254
25.952	63.494
26.952	56.794
28.014	62.423
28.952	58.416
29.952	62.694
30.952	61.194
32.013	59.749
33.016	60.512
33.951	58.069
34.951	60.494
35.952	62.794
36.952	62.594
37.952	55.694
39.013	62.293
40.014	60.234
41.033	62.212
41.952	59.298
42.952	56.994
44.017	62.623
44.952	57.855
45.953	60.194
47.010	59.502
48.009	62.656
48.952	58.849
49.952	60.494
50.952	60.694
51.952	59.894
52.952	63.194
54.019	58.944
54.952	58.086
56.015	61.011
57.014	58.953
58.010	62.444
59.015	55.119
59.953	57.883
61.019	61.908
61.953	57.168
62.953	59.494
64.009	60.032
65.011	56.538
66.012	59.335
66.953	62.906
67.953	58.694
69.016	57.661
69.953	57.198
71.011	57.839
72.010	59.053
72.953	62.560
73.953	58.494
75.011	57.894
75.954	58.637
76.954	60.594
78.011	55.245
78.954	62.242
79.954	54.195
81.036	61.639
82.016	58.157
83.045	27.888
