Time [s]	Current [nA]
0.000	10.126
0.999	57.051
1.999	61.594
2.999	63.594
4.092	57.725
5.058	56.886
6.000	64.537
7.056	56.244
8.000	63.341
9.000	57.194
10.063	64.528
11.000	58.799
12.000	60.694
13.000	60.694
14.060	59.334
15.000	58.718
16.057	60.032
17.001	64.189
18.000	60.254
19.000	60.394
20.000	56.994
21.063	65.092
22.058	56.276
23.000	64.219
24.000	60.694
25.000	61.594
26.058	58.367
27.001	60.757
28.001	61.294
29.001	60.694
30.001	60.994
31.001	62.694
32.001	57.794
33.001	60.894
34.001	60.394
35.059	56.475
36.001	63.582
37.001	58.294
38.001	62.094
39.063	58.375
40.001	65.452
41.001	55.394
42.063	64.871
43.001	60.975
44.086	56.676
45.001	61.852
46.002	61.794
47.002	61.194
48.002	58.094
49.002	63.294
50.002	61.794
51.002	60.594
52.002	60.494
53.001	62.456
54.001	56.094
55.071	63.885
56.002	59.178
57.002	60.694
58.061	57.312
59.002	61.099
60.002	57.194
61.057	31.656
62.060	41.471
63.060	51.095
64.061	58.036
65.093	58.675
66.058	57.922
67.061	60.213
68.060	59.353
69.058	60.114
70.059	62.132
71.002	59.909
72.064	56.868
73.064	60.194
74.002	64.279
75.002	55.794
76.003	62.494
77.003	62.894
78.063	58.107
79.003	58.718
80.003	59.994
81.066	64.434
82.003	61.040
83.064	58.618
84.123	46.549
