Time [s]	Current [nA]
0.000	24.029
1.056	61.464
2.053	53.867
3.000	34.111
4.000	43.604
5.000	49.605
5.999	58.206
6.999	61.306
7.998	61.768
8.998	62.906
9.998	65.607
10.998	60.206
11.998	63.606
12.998	62.906
13.998	62.506
14.998	65.607
15.997	60.106
16.997	64.006
17.997	64.106
19.059	60.552
19.997	68.770
20.997	60.706
21.997	65.707
22.997	58.906
23.997	63.606
24.996	63.670
25.995	66.107
26.995	65.707
27.995	59.206
28.995	64.406
29.995	63.306
30.995	63.306
31.995	66.107
32.995	66.207
33.995	58.506
34.995	63.506
35.994	64.406
36.994	65.007
38.067	60.584
39.046	68.138
39.994	61.715
40.994	63.606
41.994	63.506
42.993	66.573
43.993	61.106
44.993	64.706
46.052	65.195
46.992	61.283
47.992	63.606
48.992	66.907
49.992	61.006
50.992	64.506
52.052	65.478
53.055	63.416
54.054	67.274
54.992	63.972
55.991	59.506
57.049	65.602
57.991	61.365
58.991	63.306
59.990	66.473
60.990	66.207
62.051	61.269
62.990	61.348
63.990	63.306
65.051	68.086
65.989	63.759
67.000	63.607
67.989	58.550
68.989	63.106
69.989	63.206
70.989	65.807
71.989	60.906
72.989	63.706
73.989	62.906
74.989	62.806
75.988	65.007
77.081	59.567
77.987	70.758
78.987	58.306
80.065	48.521
