Time [s]	Current [nA]
0.000	15.331
1.000	56.094
1.999	56.151
2.999	56.394
3.999	58.094
4.999	57.994
6.000	51.295
7.000	56.894
8.000	56.794
9.000	56.094
10.000	57.994
11.000	52.995
12.000	56.894
13.000	56.194
14.000	55.894
15.001	58.494
16.059	55.193
17.001	54.453
18.001	56.994
19.062	57.958
20.000	53.939
21.000	58.494
22.000	53.395
23.000	56.794
24.000	56.094
25.062	57.864
26.001	55.798
27.092	52.424
28.001	57.750
29.001	56.794
30.001	55.694
31.001	55.694
32.001	58.194
33.001	57.894
34.001	52.095
35.063	57.864
36.002	53.669
37.001	57.252
38.001	57.594
39.001	53.595
40.001	56.794
41.056	53.454
42.001	59.253
43.060	54.763
44.001	56.530
45.001	56.894
46.002	55.894
47.002	56.194
48.002	55.994
49.002	52.995
50.002	57.994
51.002	56.394
52.002	55.794
53.065	52.958
54.002	56.558
55.058	54.876
56.002	59.316
57.002	56.794
58.002	55.994
59.063	52.869
60.063	58.394
61.002	56.118
62.002	56.294
63.002	56.094
64.002	55.894
65.062	54.763
66.003	55.149
67.003	57.594
68.003	56.594
69.003	55.794
70.003	55.894
71.003	53.195
72.002	58.453
73.002	56.694
74.002	56.094
75.002	55.894
76.003	52.395
77.003	56.094
78.003	59.294
79.003	56.194
80.066	52.864
81.003	59.653
82.003	53.095
83.003	58.094
84.003	56.294
85.003	55.694
86.004	55.494
87.004	56.694
88.004	52.295
89.003	58.252
90.003	6.699
