Time [s]	Current [nA]
0.000	37.750
0.999	51.747
1.999	45.595
3.061	52.255
4.060	49.545
4.999	48.238
6.000	52.095
7.000	51.995
8.000	45.995
9.000	49.995
10.000	49.695
11.000	51.695
12.000	51.395
13.000	50.395
14.000	46.095
15.001	49.895
16.058	51.461
17.001	49.518
18.000	52.047
19.000	45.895
20.000	49.495
21.000	54.195
22.000	47.095
23.000	50.295
24.000	51.595
25.000	46.095
26.001	53.795
27.001	49.595
28.001	47.495
29.001	51.895
30.001	45.995
31.001	49.695
32.001	49.395
33.001	50.495
34.001	50.795
35.002	51.795
36.001	45.741
37.062	50.890
38.056	49.693
39.001	49.730
40.001	51.595
41.001	46.195
42.061	51.221
43.059	49.594
44.001	47.660
45.001	51.995
46.002	51.195
47.002	45.695
48.002	49.395
49.002	49.295
50.002	51.095
51.002	52.095
52.002	45.395
53.001	50.245
54.001	49.395
55.001	53.795
56.002	47.195
57.002	51.895
58.002	45.795
59.002	49.395
60.002	53.895
61.002	47.295
62.002	51.595
63.069	46.668
64.002	49.298
65.002	49.295
66.003	49.295
67.003	51.295
68.003	51.595
69.003	45.995
70.061	50.846
71.002	52.386
72.064	49.148
73.002	48.503
74.002	50.795
75.002	45.695
76.003	53.795
77.003	49.295
78.003	47.495
79.058	49.000
80.056	49.995
81.003	52.054
82.003	49.695
83.003	45.895
84.003	50.795
85.003	47.895
86.004	50.095
87.004	49.295
88.062	50.751
89.003	49.623
90.003	51.395
91.003	46.195
92.003	49.395
93.003	53.695
94.087	46.490
95.003	50.868
96.004	39.396
97.004	22.698
98.004	32.997
99.004	40.496
100.062	44.041
101.004	51.800
102.004	18.198
