Time [s]	Current [nA]
0.000	0.609
0.938	56.924
1.938	49.395
2.938	53.095
3.938	46.895
4.938	45.695
5.939	36.596
6.939	36.196
7.939	39.896
8.939	43.196
9.938	46.742
10.996	51.413
11.938	48.721
12.938	53.195
13.938	52.295
14.938	44.796
15.939	47.695
17.000	49.288
17.939	41.529
18.939	40.696
19.939	38.296
20.939	44.596
21.939	55.794
22.939	54.595
23.939	55.694
24.939	46.795
25.940	45.895
26.939	43.739
27.939	46.895
28.939	47.495
29.939	47.295
30.939	43.296
31.939	46.295
32.939	46.595
34.000	47.498
34.939	46.108
35.940	45.695
36.940	37.496
37.940	32.897
38.940	40.096
39.940	39.796
40.940	44.296
41.940	40.496
42.940	34.397
43.940	27.597
44.939	25.123
45.940	30.697
46.940	43.996
47.940	55.194
48.940	57.494
49.940	58.794
50.940	58.594
51.940	61.094
52.994	58.154
53.940	57.817
54.940	58.694
55.941	58.994
56.941	61.294
58.024	56.135
58.999	62.148
59.941	57.425
60.941	59.194
61.940	59.153
62.940	61.094
63.940	61.994
64.940	55.294
65.941	59.294
66.941	59.294
67.941	60.194
68.941	60.694
69.941	57.194
70.941	59.694
71.941	58.794
72.941	59.294
73.941	61.794
74.941	61.794
75.942	55.194
76.942	58.894
77.942	59.394
78.942	59.394
79.941	62.857
81.000	57.973
81.941	57.911
82.941	59.094
83.941	59.294
84.941	61.394
85.942	61.994
86.942	54.795
87.942	59.794
88.942	59.694
90.002	60.843
90.942	59.462
91.942	61.294
92.942	54.495
93.942	59.094
94.942	58.994
95.943	61.394
96.942	22.720
