Time [s]	Current [nA]
0.000	41.210
1.000	46.095
2.085	45.986
3.000	47.755
4.059	45.227
5.062	46.203
6.001	44.085
7.063	47.453
8.001	45.305
9.001	47.695
10.001	41.896
11.001	46.095
12.061	46.882
13.000	43.872
14.000	46.995
15.000	47.695
16.001	42.396
17.001	45.695
18.001	45.395
19.001	47.095
20.001	47.395
21.070	43.588
22.001	44.786
23.001	45.295
24.001	45.595
25.001	47.395
26.002	43.496
27.063	47.592
28.002	43.766
29.002	45.295
30.001	47.142
31.001	45.895
32.001	43.096
33.001	45.595
34.001	45.096
35.001	45.195
36.002	47.095
37.002	46.695
38.002	41.796
39.002	45.195
40.002	45.495
41.002	45.895
42.002	46.695
43.002	42.996
44.002	45.195
45.002	45.395
46.003	45.295
47.003	46.695
48.002	47.042
49.002	41.696
50.002	44.796
51.063	46.461
52.101	43.830
53.060	45.042
54.002	45.537
55.002	45.895
56.003	45.495
57.003	45.595
58.003	47.195
59.003	47.595
60.003	42.196
61.003	45.595
62.062	46.454
63.003	43.779
64.003	47.295
65.002	47.042
66.003	42.596
67.003	45.195
68.003	45.595
69.003	47.095
70.003	42.696
71.003	46.495
72.068	47.695
73.003	43.632
74.003	45.495
75.003	47.495
76.004	47.095
77.004	42.396
78.004	45.195
79.063	46.926
80.058	43.212
81.004	49.255
82.065	44.953
83.003	44.025
84.003	45.495
85.003	45.495
86.004	44.496
87.004	42.196
88.065	38.639
89.064	40.536
90.004	38.720
91.004	41.596
92.004	42.296
93.004	39.896
94.004	41.896
95.004	41.096
96.005	41.396
97.005	42.796
98.005	39.396
99.005	42.396
100.004	41.738
101.004	41.396
102.004	42.096
103.063	42.205
104.004	42.079
105.004	41.996
106.005	41.196
107.065	43.203
108.005	42.123
109.069	41.819
110.074	42.682
111.005	40.920
112.005	16.098
