Time [s]	Current [nA]
0.000	18.486
0.952	46.004
1.953	46.549
2.996	42.661
3.939	50.684
4.939	42.796
6.009	46.207
6.947	47.970
7.939	42.838
8.939	48.395
9.939	48.895
10.939	43.096
11.946	51.038
12.946	48.595
13.939	45.917
14.993	47.149
16.009	48.074
17.002	49.643
17.951	50.996
18.955	48.501
20.002	44.790
20.949	53.110
22.001	46.763
22.950	50.680
23.953	49.646
24.939	48.474
25.940	52.095
26.949	49.351
27.940	45.909
29.002	50.372
29.953	51.940
30.940	47.817
31.942	51.592
32.952	49.698
33.953	49.545
34.955	49.795
35.941	47.914
36.941	50.795
37.950	49.747
38.941	46.010
39.950	53.414
40.953	50.643
41.995	45.773
42.999	51.887
44.014	51.029
44.953	53.988
45.956	50.893
46.998	45.965
48.032	49.318
49.009	53.628
50.002	52.059
51.009	49.747
51.954	53.963
52.996	45.773
53.999	52.238
55.002	51.740
55.956	52.775
57.006	48.281
57.942	50.636
58.942	52.295
60.002	50.089
60.941	48.770
61.949	54.360
62.948	50.546
63.941	48.736
65.009	50.042
65.942	50.156
66.954	54.935
67.957	50.743
68.942	46.899
70.001	50.609
70.951	55.573
72.003	49.235
73.014	49.946
73.942	50.534
74.997	49.853
75.943	55.762
76.954	51.627
78.007	49.948
78.942	49.621
79.942	51.195
81.005	50.324
81.942	52.183
82.942	51.695
83.942	51.595
84.952	55.242
85.999	46.745
87.014	52.901
87.952	56.284
89.003	50.138
89.950	53.110
90.950	51.495
91.999	47.088
92.947	56.113
93.942	47.633
94.956	55.320
96.010	48.903
96.996	49.387
97.943	55.116
98.947	52.983
100.010	36.121
