Time [s]	Current [nA]
0.000	13.739
1.058	42.151
2.058	46.095
2.999	43.779
3.999	46.695
4.999	47.095
6.000	41.596
7.000	45.595
8.000	45.096
9.000	45.095
10.000	46.895
11.000	47.095
12.000	42.096
13.000	45.495
14.000	45.495
15.000	46.595
16.001	46.795
17.001	42.796
18.001	46.195
19.000	45.441
20.000	45.195
21.000	46.895
22.000	47.095
23.000	42.496
24.000	45.595
25.000	45.895
26.001	46.495
27.001	47.495
28.001	43.896
29.001	46.395
30.001	45.995
31.062	47.780
32.001	46.428
33.001	47.895
34.001	43.196
35.001	45.895
36.062	47.731
37.098	45.073
38.001	48.057
39.060	45.793
40.001	44.735
41.001	46.095
42.059	48.010
43.001	46.386
44.001	48.995
45.001	43.296
46.002	46.395
47.002	46.595
48.002	46.495
49.002	48.295
50.002	47.795
51.002	42.696
52.002	46.295
53.002	46.495
54.001	47.743
55.001	47.595
56.002	41.896
57.002	46.695
58.002	45.695
59.002	46.095
60.002	47.995
61.002	47.295
62.002	42.296
63.002	15.698
64.002	15.198
65.002	26.897
66.003	35.196
67.003	36.896
68.003	42.796
69.064	47.686
70.003	44.937
71.003	47.695
72.002	47.943
73.002	42.796
74.002	46.095
75.002	46.195
76.003	46.795
77.003	47.295
78.003	43.996
79.003	46.295
80.003	45.895
81.003	46.195
82.003	47.995
83.003	43.396
84.003	46.495
85.003	45.695
86.004	45.995
87.004	46.095
88.062	45.837
89.003	46.648
90.003	46.195
91.003	45.795
92.003	45.795
93.003	47.495
94.003	47.495
95.085	43.381
96.004	45.588
97.004	45.495
98.004	45.995
99.004	47.995
100.063	45.510
101.004	45.054
102.004	46.095
103.004	46.295
104.004	47.895
105.004	47.995
106.005	42.296
107.004	46.842
108.004	46.895
109.004	46.195
110.004	43.796
111.004	43.796
