Time [s]	Current [nA]
0.000	30.056
1.000	54.795
2.000	59.794
3.000	58.294
4.057	55.245
5.001	61.288
6.001	59.394
7.001	54.895
8.080	58.845
9.001	56.346
10.059	53.870
11.001	61.353
12.000	54.549
13.000	59.394
14.000	57.694
15.001	57.394
16.001	57.494
17.001	58.994
18.001	53.795
19.001	58.294
20.001	58.594
21.001	57.294
22.001	56.994
23.060	55.424
24.001	56.636
25.002	57.194
26.058	52.646
27.002	60.269
28.002	58.394
29.001	56.651
30.001	66.193
31.001	64.394
32.001	63.594
33.001	63.894
34.001	60.594
35.002	65.393
36.002	63.994
37.002	62.894
38.002	62.894
39.002	64.894
40.002	58.594
41.060	61.809
42.002	67.403
43.002	62.294
44.002	62.694
45.003	59.794
46.003	64.993
47.002	63.857
48.058	58.801
49.002	65.989
50.002	63.094
51.002	58.694
52.002	63.894
53.002	63.294
54.002	61.594
55.003	61.194
56.003	62.794
57.003	58.494
58.003	62.694
59.003	61.494
60.003	60.494
61.003	60.394
62.012	62.234
63.061	55.095
64.002	64.924
65.002	59.894
66.003	59.794
67.003	56.694
68.003	60.994
69.003	60.694
70.003	60.694
71.003	59.594
72.003	59.694
73.010	61.265
74.003	57.597
75.003	60.394
76.004	59.194
77.004	58.494
78.004	60.694
79.004	54.195
80.004	60.094
81.004	58.594
82.003	58.052
83.003	58.394
84.057	6.166
