Time [s]	Current [nA]
0.000	0.150
0.938	50.741
1.938	47.895
2.938	42.996
3.938	48.595
4.938	48.695
5.939	42.996
6.939	46.795
7.939	47.195
9.025	47.969
9.939	47.807
10.939	48.795
11.939	43.196
12.939	46.595
13.993	47.908
14.995	45.405
15.939	48.882
16.939	16.498
17.939	22.198
18.998	33.236
19.939	42.185
20.939	41.496
21.939	47.095
22.939	43.696
23.998	48.626
24.939	49.942
26.002	46.700
26.940	47.010
28.012	44.399
28.940	47.409
29.940	47.695
30.940	47.795
31.940	49.995
32.940	50.395
33.939	43.739
34.939	47.195
35.940	50.795
36.940	44.496
37.940	48.695
39.005	45.254
39.940	46.412
40.940	46.795
41.940	47.095
42.940	49.195
43.940	49.495
44.940	43.696
45.997	48.859
46.941	45.652
47.941	49.095
48.941	48.495
49.996	47.010
50.940	46.605
51.940	48.195
53.002	49.336
53.940	48.822
54.940	50.095
55.941	43.896
57.003	49.148
57.995	47.273
58.941	46.401
59.941	48.795
60.941	44.995
61.941	48.095
63.000	49.287
63.998	46.989
64.941	46.973
65.942	48.795
66.942	43.596
67.942	47.395
68.941	47.943
69.941	47.695
70.941	49.695
71.941	50.395
72.941	47.495
73.941	51.095
74.941	55.994
75.942	48.695
77.001	50.514
77.942	50.154
78.942	51.695
79.942	50.695
80.942	54.895
81.942	48.295
83.000	50.373
83.949	54.262
84.942	46.722
85.942	50.946
86.942	52.295
87.942	52.595
88.942	46.495
90.002	53.014
90.942	48.719
91.999	51.934
92.942	50.896
93.942	53.195
94.942	46.495
95.943	50.095
96.943	54.395
97.943	47.395
98.943	51.295
99.945	51.093
100.997	47.524
101.943	47.564
102.942	49.945
104.004	53.384
104.942	49.782
105.943	5.799
