Time [s]	Current [nA]
0.000	31.166
1.000	53.295
2.000	50.195
3.088	49.995
3.999	53.452
4.999	53.295
6.000	52.695
7.000	52.895
8.055	51.559
9.000	57.455
10.000	49.095
11.000	52.395
12.000	52.395
13.000	54.495
14.000	53.195
15.000	50.695
16.001	52.795
17.001	52.395
18.001	52.595
19.001	54.395
20.001	49.095
21.065	54.412
22.000	50.476
23.000	51.895
24.000	52.095
25.000	54.495
26.063	51.407
27.001	50.741
28.001	52.395
29.001	51.895
30.001	53.895
31.001	49.095
32.001	52.195
33.001	52.595
34.001	52.095
35.001	52.095
36.002	49.995
37.002	53.795
38.001	52.547
39.001	47.695
40.001	51.695
41.058	50.704
42.001	56.516
43.001	51.595
44.060	49.004
45.001	49.836
46.002	51.395
47.002	53.095
48.002	53.695
49.002	47.895
50.002	51.495
51.067	53.234
52.002	51.973
53.002	52.695
54.002	48.295
55.002	51.695
56.002	51.446
57.002	51.495
58.002	54.095
59.002	49.195
60.002	52.195
61.061	48.437
62.002	54.617
63.002	46.795
64.002	53.395
65.002	53.695
66.003	51.795
67.003	47.095
68.003	50.995
69.003	53.195
70.003	53.595
71.003	47.395
72.062	52.592
73.002	49.038
74.002	50.695
75.002	52.795
76.003	47.895
77.003	51.395
78.003	50.595
79.068	52.483
80.003	51.011
81.003	48.095
82.087	51.748
83.003	50.977
84.067	51.968
85.003	48.179
86.004	52.095
87.004	48.095
88.004	51.195
89.004	50.495
90.004	50.295
91.003	52.347
92.003	52.195
93.003	45.695
94.003	50.695
95.003	49.595
96.004	49.695
97.106	31.394
