Time [s]	Current [nA]
0.000	0.167
1.062	43.687
1.999	47.701
3.061	46.229
3.999	51.061
5.000	43.596
6.000	46.595
7.000	48.795
8.000	48.495
9.000	42.696
10.000	47.295
11.000	45.395
12.000	46.095
13.000	48.295
14.000	49.095
15.001	42.596
16.001	45.895
17.057	47.912
18.001	46.076
19.000	46.542
20.064	44.169
21.000	45.081
22.000	45.395
23.000	45.595
24.000	47.795
25.000	47.795
26.001	41.896
27.001	44.896
28.001	45.795
29.001	46.495
30.001	47.195
31.001	44.696
32.001	46.295
33.063	47.829
34.001	44.345
35.002	47.895
36.002	47.895
37.001	42.939
38.001	46.395
39.001	46.095
40.001	46.595
41.001	49.395
42.001	44.996
43.001	47.395
44.001	46.495
45.001	46.295
46.002	48.295
47.002	48.395
48.002	42.796
49.063	47.592
50.002	44.192
51.002	45.995
52.002	48.095
53.002	43.996
54.001	46.242
55.058	46.870
56.002	44.381
57.002	48.395
58.002	48.195
59.002	41.996
60.002	47.095
61.002	45.795
62.002	46.095
63.002	48.295
64.002	45.095
65.002	47.195
66.003	46.995
67.003	46.795
68.065	50.089
69.090	41.947
70.005	53.219
71.065	45.184
72.062	47.137
73.059	46.936
74.002	48.139
75.002	45.095
76.003	47.795
77.003	46.595
78.003	46.795
79.003	48.095
80.003	48.495
81.003	44.996
82.003	47.295
83.003	46.395
84.003	46.395
85.003	47.695
86.004	47.195
87.004	42.696
88.004	46.095
89.003	45.741
90.003	49.795
91.003	53.695
92.003	48.595
93.003	51.095
94.003	50.295
95.003	50.295
96.004	52.195
97.004	53.095
98.084	47.495
99.068	51.926
100.004	47.858
101.004	50.295
102.004	52.395
103.004	52.395
104.015	50.341
105.004	46.204
106.005	49.795
107.057	13.877
