Time [s]	Current [nA]
0.000	26.465
1.000	54.595
1.999	53.548
2.999	52.295
3.999	52.395
5.000	52.795
6.000	50.095
7.000	53.795
8.053	49.758
9.000	55.010
10.000	51.995
11.000	53.495
12.056	47.154
13.000	55.503
14.057	49.002
15.001	54.183
16.001	51.395
17.057	50.374
18.001	51.478
19.001	52.395
20.000	51.246
21.000	51.095
22.000	52.795
23.000	48.795
24.000	51.795
25.001	51.395
26.001	50.795
27.001	51.095
28.001	53.695
29.001	48.795
30.001	51.895
31.001	50.695
32.001	50.895
33.001	52.595
34.001	46.595
35.002	52.895
36.002	51.595
37.001	50.545
38.001	50.795
39.001	47.995
40.001	52.995
41.001	51.495
42.001	50.595
43.001	50.595
44.001	52.195
45.002	51.395
46.002	48.795
47.002	51.395
48.062	47.637
49.058	51.200
50.002	55.397
51.002	48.195
52.002	51.695
53.056	47.718
54.002	53.272
55.001	50.345
56.002	48.095
57.002	51.495
58.060	47.632
59.059	50.345
60.002	53.335
61.002	51.895
62.064	49.995
63.002	48.396
64.002	50.695
65.002	49.595
66.003	50.095
67.003	48.395
68.003	51.795
69.003	50.695
70.003	49.295
71.003	48.895
72.002	50.946
73.002	46.695
74.002	49.695
75.060	47.204
76.059	49.044
77.059	49.195
78.003	54.867
79.003	47.395
80.003	51.595
81.003	49.495
82.003	49.495
83.003	51.695
84.003	45.295
85.059	49.189
86.004	52.799
87.004	48.995
88.004	49.195
89.004	51.095
90.003	47.243
91.003	50.595
92.003	49.295
93.003	49.395
94.003	50.795
95.095	45.642
96.004	51.700
97.004	49.495
98.004	48.495
99.004	18.698
