Time [s]	Current [nA]
0.000	19.616
1.000	51.295
2.000	48.395
3.000	50.695
4.000	50.495
5.001	50.395
6.001	51.595
7.001	47.295
8.001	50.595
9.001	49.895
10.001	50.795
11.000	45.341
12.062	54.232
13.000	49.888
14.000	46.795
15.001	49.795
16.001	49.595
17.001	51.795
18.001	46.695
19.001	49.795
20.001	48.995
21.001	48.595
22.001	49.095
23.001	50.995
24.001	45.895
25.002	51.395
26.002	51.395
27.002	51.395
28.001	53.748
29.001	48.495
30.070	53.222
31.001	49.512
32.001	51.395
33.001	51.195
34.001	53.095
35.002	48.395
36.002	52.195
37.066	52.908
38.002	49.461
39.002	53.295
40.089	48.661
41.002	52.021
42.002	51.795
43.002	50.695
44.002	50.695
45.003	52.695
46.002	49.044
47.002	50.995
48.002	50.795
49.002	50.995
50.002	47.295
51.002	51.095
52.002	52.895
53.002	50.995
54.002	51.095
55.003	51.595
56.003	47.895
57.003	52.995
58.003	47.395
59.003	50.195
60.003	50.295
61.104	51.493
62.003	47.604
63.002	11.510
64.002	16.198
65.002	25.497
66.003	33.697
67.064	39.676
68.003	42.594
69.086	48.379
70.003	51.249
71.003	52.395
72.003	51.695
73.003	53.995
74.003	48.795
75.003	51.995
76.004	52.295
77.004	52.095
78.004	53.495
79.004	49.195
80.004	51.495
81.003	52.247
82.003	50.795
83.003	50.795
84.003	48.595
85.003	52.495
86.004	46.795
87.004	51.095
88.004	50.895
89.004	52.595
90.004	50.795
91.069	50.042
92.004	49.193
93.004	51.095
94.004	50.695
95.004	52.095
96.067	49.901
97.063	45.578
98.004	53.448
99.004	49.795
100.004	46.295
101.004	51.795
102.004	17.098
