Time [s]	Current [nA]
0.000	14.595
1.000	48.495
2.000	48.495
3.000	50.095
4.000	45.595
5.066	49.948
6.000	46.141
7.000	12.799
8.000	16.198
9.062	24.574
10.000	32.833
11.000	38.296
12.000	40.996
13.066	46.900
14.000	49.995
15.000	46.895
16.001	49.495
17.001	49.295
18.001	48.995
19.001	49.195
20.001	51.895
21.001	45.995
22.001	48.995
23.001	48.795
24.057	45.734
25.000	53.017
26.001	46.595
27.075	50.088
28.063	44.429
29.001	51.701
30.001	48.395
31.001	45.695
32.001	49.795
33.001	48.695
34.001	47.895
35.001	47.995
36.059	46.826
37.002	46.231
38.002	49.195
39.002	48.295
40.002	46.895
41.001	48.043
42.001	45.795
43.001	49.695
44.001	47.295
45.001	46.595
46.002	47.195
47.064	46.511
48.002	45.731
49.002	49.995
50.002	47.695
51.002	46.995
52.002	47.495
53.002	45.096
54.002	49.095
55.002	47.595
56.003	47.395
57.003	47.495
58.003	47.995
59.002	44.640
60.002	48.795
61.002	47.495
62.002	46.995
63.002	47.095
64.002	44.796
65.058	46.062
66.003	49.730
67.003	46.095
68.065	43.687
69.003	50.315
70.003	44.596
71.003	48.095
72.003	46.995
73.003	45.795
74.003	46.195
75.003	44.396
76.003	48.243
77.003	46.795
78.003	46.995
79.003	46.395
80.003	46.395
81.003	43.796
82.003	47.795
83.003	47.295
84.065	44.252
85.003	49.142
86.004	43.796
87.004	46.795
88.004	48.695
89.004	47.795
90.004	47.595
91.004	43.996
92.004	48.895
93.004	49.895
94.003	43.739
95.003	47.595
96.004	47.695
97.062	46.593
98.091	46.837
99.004	50.378
100.004	47.595
101.004	47.495
102.004	46.995
103.004	48.895
104.058	46.580
105.004	46.190
106.005	47.995
107.005	47.895
108.333	22.965
