Time [s]	Current [nA]
0.000	22.861
1.000	34.697
2.053	33.615
3.000	38.750
4.000	33.197
5.001	36.096
6.001	35.496
7.001	35.097
8.001	34.797
9.059	34.307
10.001	35.134
11.001	35.296
12.000	34.631
13.000	34.897
14.000	37.196
15.001	32.197
16.001	37.396
17.001	35.296
18.057	33.235
19.001	37.073
20.001	36.396
21.001	33.197
22.001	35.296
23.001	34.897
24.001	34.797
25.002	35.296
26.002	35.696
27.002	33.297
28.002	35.796
29.002	34.697
30.001	35.632
31.001	36.496
32.001	33.597
33.001	35.896
34.001	34.996
35.002	35.396
36.002	35.097
37.002	33.797
38.002	36.496
39.002	36.196
40.002	35.196
41.002	34.996
42.002	36.296
43.002	32.897
44.002	35.596
45.003	35.996
46.065	33.142
47.002	38.203
48.064	35.401
49.002	36.031
50.062	34.148
51.002	34.039
52.057	36.015
53.002	35.340
54.002	37.096
55.003	32.797
56.003	35.196
57.003	34.996
58.003	37.996
59.003	33.697
60.003	36.796
61.003	32.997
62.003	35.296
63.003	38.196
64.003	33.397
65.002	36.032
66.059	34.561
67.060	35.461
68.003	33.295
69.058	35.921
70.003	35.340
71.062	34.935
72.003	34.747
73.003	35.296
74.003	35.596
75.085	36.444
76.004	35.252
77.004	36.796
78.004	32.497
79.004	34.797
80.005	38.358
81.004	33.130
82.003	37.534
83.003	32.497
84.066	36.497
85.070	35.490
86.004	34.686
87.004	37.196
88.004	36.596
89.064	34.053
90.004	30.103
91.056	35.453
92.004	36.389
93.004	22.798
94.004	13.699
95.065	21.790
96.005	26.168
97.005	33.897
98.005	31.297
99.068	34.616
100.004	32.475
101.062	36.291
102.004	34.285
103.004	36.296
104.004	34.597
105.059	28.745
106.005	28.221
107.005	33.397
108.005	35.996
109.005	27.997
110.005	33.897
111.005	27.797
112.005	35.896
113.059	31.780
114.005	32.343
115.005	32.297
116.064	32.983
117.005	0.319
