Time [s]	Current [nA]
0.000	25.101
0.998	42.881
1.991	40.177
2.936	41.689
3.936	43.396
4.936	42.896
5.937	42.496
6.937	42.896
7.936	41.037
8.936	44.696
9.936	43.796
10.936	42.996
11.936	42.996
12.995	42.205
13.936	42.291
14.936	44.896
15.937	43.496
16.992	40.470
17.997	42.483
18.937	47.761
19.937	41.296
20.937	43.996
21.995	40.922
22.937	45.643
24.005	41.288
24.937	46.669
25.937	41.237
26.996	41.261
27.937	45.585
28.937	42.796
29.937	44.995
30.937	40.996
31.937	43.696
32.937	42.896
33.937	42.896
34.937	43.496
35.938	40.796
36.938	44.596
37.938	43.196
38.938	42.796
39.938	42.796
40.938	44.496
41.938	40.696
42.937	43.539
43.995	41.017
44.937	45.325
45.938	42.896
46.941	44.562
47.938	41.220
48.938	43.296
49.938	42.596
50.938	42.996
51.938	44.596
52.938	40.896
53.938	43.396
54.938	43.796
55.939	42.896
56.939	42.696
57.939	44.896
58.939	40.796
59.939	43.396
60.938	43.139
61.938	43.096
62.938	40.996
63.938	43.496
64.938	44.996
65.939	43.496
66.939	43.496
67.939	43.196
68.939	44.995
69.939	41.496
70.939	44.196
71.939	43.496
72.939	43.696
73.939	45.095
75.005	41.647
75.940	44.000
76.998	41.678
77.939	46.010
78.939	43.396
79.939	45.395
80.939	41.396
81.939	44.396
82.939	43.296
83.939	43.396
84.939	43.896
85.940	41.696
86.994	42.880
87.940	46.507
88.940	43.596
89.940	43.996
90.940	45.595
91.940	41.796
92.940	9.299
