Time [s]	Current [nA]
0.000	23.498
0.999	37.734
1.999	33.397
2.999	35.396
3.999	35.496
4.999	35.296
6.000	36.596
7.000	31.997
8.081	33.669
9.000	34.055
10.000	32.897
11.000	32.897
12.000	34.597
13.000	31.297
14.000	33.297
15.000	32.697
16.001	32.397
17.001	31.497
18.001	32.997
19.000	33.130
20.058	31.093
21.055	32.695
22.000	33.965
23.000	33.397
24.000	30.597
25.000	32.297
26.058	28.379
27.056	31.360
28.064	33.032
29.097	30.103
30.001	32.298
31.059	29.014
32.001	33.648
33.001	32.397
34.001	33.497
35.001	30.297
36.001	32.329
37.001	31.497
38.001	31.597
39.001	31.897
40.001	29.097
41.001	32.497
42.001	31.897
43.001	30.797
44.001	30.097
45.057	27.675
46.002	30.050
47.002	31.197
48.002	29.997
49.002	30.197
50.002	18.898
51.002	1.600
52.002	28.897
53.002	32.497
54.001	30.928
55.001	32.397
56.002	30.897
57.002	32.497
58.005	32.100
59.064	29.931
60.002	28.782
61.002	31.997
62.002	30.397
63.002	34.397
64.002	30.297
65.002	31.397
66.003	32.997
67.003	36.196
68.003	35.896
69.003	35.496
70.003	31.597
71.002	34.931
72.002	35.396
73.002	28.797
74.002	28.397
75.002	37.696
76.066	38.848
77.003	37.456
78.003	38.696
79.003	37.796
80.003	35.696
81.003	37.996
82.003	37.696
83.003	41.196
84.003	36.296
85.003	38.796
86.004	33.397
87.004	36.496
88.004	37.396
89.003	39.235
90.003	42.396
91.003	43.096
92.003	38.896
93.003	41.796
94.003	45.295
95.003	39.796
96.004	43.696
97.004	38.696
98.004	41.396
99.004	42.496
100.004	46.295
101.004	52.795
102.004	51.695
103.004	56.494
104.004	55.494
105.004	54.595
106.004	58.052
107.004	52.395
108.004	56.294
109.004	55.994
110.004	56.194
111.004	55.694
112.004	57.794
113.004	53.195
114.059	52.696
115.004	58.407
116.005	55.594
117.005	57.594
118.083	53.798
119.005	55.851
120.005	56.594
121.005	56.094
122.005	56.394
123.005	57.694
124.004	53.348
125.004	56.494
126.005	55.594
127.064	51.836
128.005	61.630
129.005	51.595
130.005	5.799
