Time [s]	Current [nA]
0.000	18.400
1.000	49.795
2.000	45.595
3.000	50.295
4.000	48.995
5.057	46.113
6.001	52.749
7.091	51.188
8.001	45.490
9.001	51.495
10.001	49.595
11.001	48.895
12.001	48.795
13.001	49.695
14.001	46.095
15.002	49.495
16.002	49.495
17.001	48.944
18.059	46.309
19.001	49.252
20.001	50.395
21.060	45.982
22.001	50.898
23.001	48.295
24.063	47.265
25.001	47.223
26.002	49.795
27.002	49.495
28.002	47.795
29.002	47.695
30.002	49.295
31.002	45.895
32.002	47.995
33.002	46.795
34.002	47.895
35.001	49.344
36.002	42.696
37.002	49.795
38.002	48.795
39.002	47.895
40.002	48.395
41.002	45.995
42.002	49.595
43.002	46.995
44.002	47.495
45.002	47.595
46.096	44.826
47.006	53.072
48.003	45.131
49.003	48.395
50.060	45.596
51.003	51.108
52.002	50.445
53.002	46.095
54.055	46.054
55.002	50.048
56.003	46.795
57.003	47.095
58.053	46.472
59.003	47.258
60.003	48.395
61.056	45.390
62.003	50.259
63.003	50.195
64.003	45.595
65.003	48.195
66.063	45.227
67.004	50.473
68.004	47.795
69.003	45.641
70.003	49.495
71.003	48.695
72.059	45.639
73.056	48.440
74.060	50.393
75.003	48.564
76.092	49.811
77.004	48.022
78.004	48.895
79.004	49.095
80.004	46.595
81.004	51.695
82.004	45.995
83.056	50.850
84.004	46.620
85.067	51.501
86.005	47.756
87.004	45.541
88.004	49.095
89.004	48.595
90.062	49.901
91.004	49.358
92.004	51.095
93.004	45.395
94.004	51.495
95.061	54.824
96.005	14.935
97.062	16.460
98.005	30.220
99.005	34.097
100.062	43.893
101.005	46.655
102.059	53.410
103.064	56.412
104.004	54.569
105.212	33.054
