Time [s]	Current [nA]
0.000	27.642
1.054	50.659
2.000	49.572
3.062	55.832
4.000	52.020
5.001	48.295
6.001	52.195
7.000	51.847
8.000	52.195
9.000	54.095
10.000	48.895
11.000	51.095
12.000	51.395
13.059	52.686
14.000	51.323
15.060	50.137
16.001	48.667
17.063	53.761
18.001	49.249
19.001	50.795
20.001	53.495
21.001	53.695
22.001	47.695
23.001	50.495
24.000	50.345
25.000	51.495
26.078	48.092
27.001	49.832
28.001	50.095
29.001	50.795
30.001	51.195
31.001	53.595
32.001	48.495
33.001	51.395
34.001	50.795
35.002	51.395
36.002	52.295
37.002	51.395
38.002	49.095
39.002	51.995
40.002	50.795
41.002	50.995
42.001	53.248
43.001	52.495
44.001	47.295
45.001	50.695
46.002	49.995
47.002	51.795
48.002	53.195
49.002	48.495
50.002	51.595
51.002	50.995
52.002	51.295
53.002	53.095
54.002	52.695
55.003	47.695
56.060	52.786
57.003	48.139
58.003	49.495
59.002	52.948
60.002	47.795
61.002	50.995
62.002	50.995
63.002	51.295
64.002	52.495
65.002	52.795
66.003	47.095
67.003	51.295
68.003	50.095
69.063	51.410
70.003	50.740
71.003	52.295
72.003	46.295
73.003	49.795
74.003	49.995
75.003	51.195
76.073	48.732
77.003	50.318
78.003	50.195
79.003	48.395
80.003	48.495
81.058	47.863
82.003	53.222
83.003	45.095
84.003	48.395
85.003	49.495
86.004	51.695
87.004	50.995
88.004	47.895
89.004	50.295
90.004	49.695
91.004	49.295
92.004	50.895
93.004	50.195
94.003	44.440
95.003	48.395
96.004	48.595
97.004	49.295
98.004	51.095
99.065	23.749
