Time [s]	Current [nA]
0.000	27.160
1.059	40.789
2.000	41.760
3.000	41.896
4.057	38.407
5.000	43.095
6.000	41.396
7.000	38.996
8.000	42.296
9.000	41.396
10.000	40.796
11.000	40.596
12.000	38.696
13.000	42.096
14.000	41.096
15.063	38.697
16.001	43.492
17.062	38.450
18.001	41.316
19.001	41.596
20.001	40.596
21.001	40.296
22.000	40.236
23.000	38.296
24.000	41.696
25.001	41.296
26.001	41.096
27.001	40.796
28.001	40.796
29.001	38.996
30.001	42.596
31.001	42.396
32.001	41.396
33.001	40.796
34.001	38.796
35.097	42.462
36.002	42.316
37.002	41.296
38.002	41.296
39.001	38.435
40.001	42.696
41.001	42.796
42.001	38.496
43.001	41.296
44.001	41.296
45.001	41.996
46.002	41.896
47.062	40.373
48.002	39.677
49.002	40.696
50.002	40.496
51.002	42.496
52.002	38.896
53.002	41.896
54.002	40.796
55.003	40.796
56.003	40.696
57.002	43.139
58.002	39.196
59.002	41.396
60.002	40.196
61.002	40.896
62.002	42.296
63.002	38.896
64.002	40.496
65.002	40.596
66.003	41.196
67.059	39.579
68.003	44.805
69.003	38.996
70.003	41.396
71.064	38.450
72.003	43.766
73.003	38.896
74.002	42.638
75.002	40.996
76.003	41.796
77.003	33.597
78.003	11.299
79.003	16.598
80.003	22.598
81.003	31.297
82.003	33.897
83.003	37.296
84.003	44.995
85.090	40.696
86.064	46.402
87.004	41.485
88.065	44.011
89.063	41.980
90.004	42.716
91.003	43.439
92.003	38.396
93.003	41.196
94.003	41.996
95.003	41.896
96.004	43.696
97.004	39.496
98.004	42.096
99.004	41.596
100.004	41.296
101.004	43.196
102.004	42.596
103.064	39.619
104.004	38.826
105.004	40.796
106.005	41.196
107.068	40.730
108.005	42.472
109.004	41.838
110.004	41.896
111.004	41.396
112.059	40.186
113.059	39.396
114.004	44.546
115.004	41.896
116.005	41.096
117.064	39.090
118.005	41.122
119.005	42.596
120.005	38.196
121.005	40.796
122.064	42.205
123.005	40.910
124.005	15.898
