Time [s]	Current [nA]
0.000	22.140
0.923	54.166
1.923	53.595
2.982	51.081
3.923	55.255
4.923	56.894
5.924	49.195
6.924	52.995
7.924	57.894
8.924	50.795
9.924	53.995
10.924	53.895
11.924	48.995
12.978	55.023
13.977	52.547
14.924	52.476
15.925	54.595
16.925	49.095
17.924	52.747
18.983	54.574
19.924	53.873
20.924	54.595
21.924	50.095
22.924	53.395
23.924	52.695
24.924	57.294
25.925	50.095
26.927	55.883
27.986	50.703
28.925	51.220
29.925	54.994
30.925	54.795
31.925	55.394
32.984	52.025
33.984	54.295
34.924	50.633
35.925	52.995
36.925	54.994
37.925	55.095
38.925	49.695
39.925	53.595
40.925	53.095
41.925	52.995
42.925	54.595
43.925	53.595
44.925	47.195
45.979	53.746
46.982	51.341
47.926	52.643
48.926	54.994
50.001	49.390
50.926	53.508
51.926	53.095
52.925	52.247
53.925	54.595
54.925	49.595
55.981	50.327
56.926	49.730
57.926	23.598
58.926	31.997
59.926	36.796
60.926	47.895
61.926	49.795
62.981	50.232
63.926	57.349
64.926	55.494
65.927	51.295
66.982	50.801
67.985	51.939
68.982	52.653
69.990	53.368
70.926	51.597
71.926	55.394
72.926	53.895
73.926	53.795
74.982	50.563
75.990	55.804
76.927	53.570
77.927	48.795
78.927	56.594
79.984	49.286
81.012	52.232
81.927	54.093
82.986	50.986
83.927	51.642
84.927	52.595
85.928	52.595
86.928	53.795
87.927	55.250
88.927	47.895
89.927	54.695
90.989	55.550
91.927	51.807
92.927	55.394
93.989	53.384
94.927	56.178
96.027	30.934
