Time [s]	Current [nA]
0.000	38.376
1.050	45.900
2.000	49.153
3.058	43.946
4.057	45.841
5.001	45.383
6.001	48.095
7.000	48.243
8.000	46.395
9.000	46.295
10.000	46.395
11.000	44.496
12.058	45.175
13.000	50.632
14.000	46.595
15.001	46.995
16.001	47.195
17.001	44.296
18.001	49.095
19.059	45.175
20.001	49.889
21.001	47.195
22.001	45.195
23.001	50.195
24.078	44.378
25.001	47.934
26.001	47.695
27.001	47.895
28.001	49.995
29.001	44.996
30.001	48.395
31.001	47.095
32.001	47.395
33.001	48.895
34.001	43.796
35.002	49.195
36.002	47.195
37.002	47.095
38.002	47.695
39.002	49.695
40.002	44.696
41.002	47.295
42.001	47.142
43.001	46.695
44.001	44.496
45.001	47.695
46.002	49.695
47.002	47.895
48.002	47.595
49.002	47.095
50.002	45.095
51.002	48.895
52.064	45.852
53.063	47.243
54.002	50.581
55.003	43.996
56.003	49.295
57.003	48.595
58.003	47.795
59.002	47.042
60.064	44.628
61.002	48.076
62.002	48.495
63.002	47.695
64.002	47.895
65.002	47.395
66.003	47.695
67.003	18.798
68.003	17.798
69.003	25.997
70.003	33.997
71.003	39.196
72.003	40.596
73.003	50.895
74.003	49.095
75.003	48.695
76.004	49.395
77.003	48.644
78.003	45.995
79.003	50.495
80.003	48.195
81.003	47.895
82.003	48.095
83.003	45.495
84.003	49.295
85.003	48.395
86.004	48.695
87.004	47.995
88.004	47.495
89.060	43.746
90.068	49.697
91.004	46.897
92.004	47.895
93.004	47.595
94.003	49.745
95.003	48.395
96.004	45.495
97.004	47.795
98.004	47.395
99.004	47.495
100.004	49.695
101.004	44.596
102.004	47.595
103.067	49.572
104.004	45.780
105.081	45.813
106.005	49.021
107.005	49.595
108.054	0.286
