Time [s]	Current [nA]
0.000	15.123
1.062	48.394
2.059	50.045
2.999	53.505
3.999	47.295
4.999	51.395
6.000	45.395
7.000	49.495
8.000	48.995
9.000	51.695
10.000	50.095
11.000	50.995
12.000	45.795
13.000	49.495
14.000	49.695
15.000	51.095
16.001	47.395
17.001	49.895
18.001	49.195
19.001	53.595
20.071	48.219
21.000	48.004
22.000	52.495
23.000	46.195
24.000	49.195
25.000	53.795
26.001	47.195
27.001	51.195
28.001	46.395
29.001	49.395
30.001	54.195
31.001	45.795
32.001	51.795
33.001	51.695
34.001	45.595
35.053	51.470
36.060	49.052
37.002	49.570
38.055	49.473
39.001	48.198
40.001	50.795
41.001	49.595
42.001	49.795
43.001	52.095
44.062	48.817
45.058	44.719
46.002	51.478
47.058	46.397
48.065	20.951
49.002	18.248
50.091	27.821
51.002	35.232
52.002	40.096
53.059	42.474
54.059	51.395
55.001	49.995
56.002	51.595
57.002	50.295
58.002	50.095
59.002	51.595
60.093	46.283
61.002	50.490
62.060	47.254
63.002	52.118
64.057	46.536
65.002	53.857
66.003	46.495
67.058	47.768
68.003	51.318
69.058	46.062
70.003	53.434
71.069	47.275
72.003	49.781
73.002	50.345
74.002	49.395
75.002	49.195
76.003	46.695
77.003	50.595
78.003	50.395
79.003	49.295
80.057	47.434
81.103	54.201
82.061	48.116
83.003	49.252
84.003	50.295
85.003	49.095
86.061	46.731
87.004	54.607
88.004	47.395
89.004	50.095
90.003	50.546
91.003	49.795
92.003	49.795
93.006	51.141
94.003	47.438
95.003	49.895
96.004	48.595
97.004	49.395
98.004	51.395
99.004	47.595
100.004	50.495
101.004	51.995
102.004	49.695
103.134	39.908
