Time [s]	Current [nA]
0.000	6.022
1.055	43.218
2.056	45.450
3.000	49.359
4.000	42.496
5.057	43.272
6.000	47.185
7.000	44.596
8.000	46.595
9.064	45.014
10.000	43.265
11.000	45.895
12.000	44.496
13.000	44.995
14.000	45.695
15.000	41.896
16.001	44.696
17.001	43.496
18.001	43.896
19.001	45.595
20.088	41.854
21.001	45.669
22.001	44.296
23.000	44.040
24.000	44.296
25.000	45.695
26.001	42.196
27.057	41.568
28.001	46.182
29.001	43.996
30.001	45.095
31.001	40.996
32.001	45.395
33.001	44.296
34.001	44.096
35.001	43.896
36.002	45.195
37.002	41.796
38.065	41.576
39.002	45.993
40.057	40.849
41.098	47.258
42.061	41.429
43.064	45.858
44.056	39.915
45.058	43.153
46.059	43.752
47.059	45.395
48.064	45.767
49.088	44.234
50.061	41.209
51.063	43.808
52.059	43.971
53.064	46.065
54.060	41.663
55.064	44.761
56.003	41.849
57.061	44.419
58.002	43.673
59.002	45.695
60.002	40.696
61.002	44.096
62.002	43.796
63.002	46.495
64.002	40.996
65.070	42.264
66.003	43.190
67.003	43.896
68.003	43.396
69.003	44.596
70.003	44.396
71.061	43.096
72.003	43.202
73.003	43.496
74.059	45.166
75.003	44.699
76.003	42.338
77.064	45.707
78.003	42.275
79.003	43.796
80.083	46.384
81.064	39.446
82.003	44.404
83.003	43.296
84.058	44.261
85.003	42.112
86.004	45.495
87.004	45.495
88.004	40.296
89.004	43.396
90.004	43.596
91.004	43.596
92.058	43.259
93.060	44.806
94.003	42.414
95.062	44.797
96.004	46.174
97.004	41.696
98.058	43.544
99.082	43.355
100.004	43.271
101.004	43.496
102.004	43.596
103.004	45.895
104.004	45.395
105.004	39.996
106.060	44.261
107.060	43.296
108.005	43.382
109.005	45.195
110.106	40.505
111.004	44.873
112.065	44.670
113.004	41.955
114.004	41.596
