Time [s]	Current [nA]
0.000	24.577
1.064	45.860
1.999	43.525
2.999	45.595
3.999	44.696
5.000	42.496
6.000	45.795
7.000	47.795
8.000	46.595
9.000	46.595
10.000	47.195
11.000	45.295
12.000	49.695
13.000	43.796
14.000	46.395
15.001	46.495
16.001	47.895
17.001	48.495
18.001	44.896
19.000	46.942
20.000	46.595
21.057	43.704
22.007	50.100
23.000	44.608
24.063	44.586
25.001	50.368
26.001	47.195
27.001	46.695
28.001	45.295
29.001	49.895
30.001	47.795
31.001	46.995
32.001	46.695
33.001	44.696
34.001	49.095
35.002	46.795
36.001	48.143
37.063	45.664
38.001	51.168
39.001	45.795
40.060	46.832
41.061	48.347
42.001	45.208
43.001	46.695
44.056	45.493
45.002	46.662
46.002	49.095
47.002	47.495
48.002	47.195
49.064	49.524
50.002	46.690
51.002	44.496
52.058	44.598
53.001	49.306
54.058	44.556
55.001	47.821
56.002	47.795
57.002	49.095
58.002	48.095
59.002	47.495
60.002	46.495
61.002	44.796
62.002	49.195
63.002	48.295
64.002	48.095
65.002	48.095
66.010	49.846
67.003	45.514
68.003	50.695
69.003	47.795
70.003	48.095
71.061	43.946
72.002	47.392
73.002	49.995
74.002	44.396
75.002	48.095
76.003	47.995
77.003	47.795
78.003	48.395
79.003	44.196
80.003	47.195
81.003	45.895
82.003	46.395
83.003	49.195
84.003	45.995
85.003	49.195
86.004	48.895
87.004	47.795
88.003	47.743
89.068	47.319
90.003	48.124
91.003	48.395
92.003	47.695
93.003	46.795
94.003	45.096
95.003	47.595
96.004	48.295
97.009	47.458
98.066	44.556
99.004	49.675
100.004	44.296
101.004	48.495
102.004	46.595
103.004	23.898
104.004	23.098
105.004	30.897
106.004	39.235
107.004	45.395
108.004	17.898
