Time [s]	Current [nA]
0.000	49.095
1.000	54.295
2.000	57.894
3.000	56.794
4.000	56.794
5.000	58.694
6.001	54.495
7.001	57.294
8.001	57.194
9.000	56.651
10.000	57.094
11.000	54.395
12.057	55.907
13.057	56.894
14.000	59.697
15.000	55.894
16.001	58.694
17.001	52.895
18.001	58.794
19.001	56.994
20.001	55.994
21.001	56.194
22.001	37.596
23.001	21.598
24.001	34.697
25.058	40.716
26.059	49.246
27.001	57.213
28.001	49.395
29.001	58.294
30.001	55.594
31.001	54.995
32.001	55.294
33.061	54.146
34.001	55.739
35.001	56.594
36.002	55.594
37.002	56.194
38.086	52.486
39.002	57.309
40.002	56.994
41.002	56.194
42.002	55.994
43.002	55.694
44.001	57.452
45.001	52.595
46.002	56.694
47.002	55.394
48.002	56.294
49.002	55.394
50.063	55.508
51.002	55.692
52.002	56.394
53.002	55.994
54.002	56.594
55.002	57.694
56.003	53.495
57.003	56.294
58.003	56.394
59.003	55.794
60.061	53.019
61.003	57.107
62.064	60.597
63.002	54.899
64.002	56.194
65.002	57.094
66.003	55.294
67.003	57.994
68.003	59.094
69.003	57.694
70.003	57.094
71.061	58.973
72.057	53.609
73.003	56.971
74.003	57.994
75.062	54.059
76.004	61.247
77.004	59.494
78.004	52.995
79.003	60.054
80.003	56.594
81.003	56.394
82.003	57.394
83.003	59.894
84.003	54.495
85.003	59.294
86.004	56.994
87.004	57.194
88.004	58.094
89.004	53.595
90.004	33.997
