Time [s]	Current [nA]
0.000	45.683
0.945	50.471
1.945	50.795
2.945	50.095
3.945	47.495
4.944	48.143
5.947	50.494
6.945	46.088
7.945	50.095
8.945	48.995
9.997	45.433
10.945	52.737
11.945	44.396
12.945	49.695
13.945	49.495
14.945	48.495
15.946	48.595
16.946	48.995
17.946	46.195
18.946	49.995
19.946	48.195
20.946	48.495
21.945	45.741
22.945	50.795
23.945	51.895
25.000	47.483
25.946	51.741
27.009	45.903
27.946	49.942
29.005	47.493
29.946	48.773
30.946	48.495
31.946	48.395
32.946	49.695
33.946	51.895
34.946	46.095
36.008	51.361
36.947	47.173
38.007	50.844
38.947	49.463
39.946	47.443
40.946	50.495
41.946	49.795
42.946	49.195
43.946	49.595
44.946	51.095
46.009	47.924
46.947	48.183
47.947	49.095
48.947	50.095
49.947	51.795
50.947	47.095
51.947	49.695
52.947	50.795
53.947	50.195
54.947	50.195
55.948	52.895
56.947	30.127
57.947	21.498
59.013	32.924
59.947	38.433
60.947	46.195
62.027	44.162
63.007	51.525
63.947	47.655
64.947	50.895
65.948	50.695
66.948	51.895
67.948	52.395
68.948	47.595
69.948	50.795
70.948	49.595
71.948	50.595
73.027	45.408
73.948	51.569
74.947	49.945
75.948	50.795
76.948	49.795
78.006	49.050
78.948	55.408
79.948	47.695
80.948	50.495
81.948	49.995
82.948	50.895
83.948	52.895
84.948	47.295
85.949	50.795
87.010	51.079
87.949	48.451
88.949	51.095
89.949	48.095
91.017	51.212
91.948	48.115
92.948	50.295
93.948	49.095
94.948	51.295
95.949	52.495
96.949	48.495
97.949	50.195
98.949	50.695
100.005	48.669
100.949	49.995
102.023	36.309
