Time [s]	Current [nA]
0.000	16.179
1.060	60.183
2.000	60.419
3.000	63.394
4.000	64.194
5.000	56.794
6.001	60.894
7.001	61.394
8.001	63.694
9.001	56.794
10.001	62.294
11.001	61.494
12.000	61.255
13.000	61.394
14.000	64.494
15.056	60.942
16.001	61.264
17.001	62.094
18.062	63.330
19.001	62.188
20.001	63.894
21.001	58.694
22.001	62.494
23.001	61.794
24.001	62.494
25.001	64.594
26.002	65.093
27.002	58.194
28.002	62.594
29.001	62.857
30.001	64.394
31.001	64.594
32.001	60.594
33.001	63.294
34.062	65.026
35.001	61.336
36.002	65.993
37.002	60.894
38.002	64.194
39.002	63.394
40.002	63.494
41.002	63.694
42.002	66.693
43.002	60.294
44.002	63.794
45.002	63.294
46.003	63.194
47.002	66.260
48.063	63.330
49.002	60.697
50.068	66.504
51.002	61.985
52.002	64.394
53.002	66.793
54.061	63.072
55.002	62.480
56.003	63.694
57.003	63.794
58.003	66.693
59.003	65.893
60.003	59.994
61.003	64.394
62.003	63.994
63.003	63.594
64.002	66.560
65.002	66.293
66.003	59.394
67.003	63.294
68.003	63.794
69.062	62.694
70.003	68.856
71.003	61.094
72.003	63.794
73.003	63.794
74.003	63.694
75.003	65.593
76.004	66.593
77.004	59.594
78.004	63.694
79.004	63.894
80.004	12.499
