Time [s]	Current [nA]
0.000	15.165
1.058	39.619
2.060	43.686
2.998	41.594
3.997	43.417
4.997	44.118
5.997	43.217
6.996	42.817
8.053	43.537
8.995	46.678
9.995	43.217
10.995	44.018
11.994	42.217
12.994	46.619
13.993	44.318
14.993	43.818
15.993	43.317
17.051	43.360
17.992	45.821
18.991	47.819
19.990	42.459
20.990	45.518
21.989	45.318
22.989	47.119
23.991	47.676
24.988	42.344
25.988	45.818
26.987	44.618
27.987	44.618
29.044	45.009
29.986	47.684
30.986	47.019
31.985	47.419
32.997	49.625
33.984	44.451
35.085	48.612
35.984	43.399
37.048	48.658
37.982	46.057
38.981	47.319
39.981	49.820
40.985	50.518
41.980	45.199
42.980	49.020
43.979	48.319
44.979	49.720
45.979	50.320
46.978	45.618
47.978	49.120
48.977	48.419
50.042	49.597
50.977	49.432
52.038	48.324
52.976	47.780
53.975	49.020
54.974	49.369
55.974	49.520
56.973	51.821
57.973	46.719
58.972	49.520
59.972	48.519
60.972	48.119
61.971	50.820
63.036	48.564
63.970	47.506
64.970	49.720
65.970	47.619
66.969	47.419
67.969	49.920
69.029	46.390
69.968	47.410
70.968	48.119
71.967	48.219
72.966	49.970
73.971	49.921
74.965	45.491
75.965	49.120
76.964	47.919
77.964	47.319
78.963	49.020
79.963	44.918
80.963	47.219
81.962	46.819
82.962	47.419
83.961	49.820
84.961	47.819
85.961	44.218
86.960	47.619
87.960	48.820
88.959	48.319
89.958	49.369
90.966	49.921
91.957	44.776
92.957	48.219
93.956	48.519
94.956	48.920
95.956	48.920
96.955	45.018
97.955	48.219
99.020	48.706
100.019	44.362
100.954	14.016
101.953	15.906
102.953	25.810
104.014	35.702
104.952	40.208
105.952	43.417
106.951	50.520
107.950	45.964
108.949	23.409
