Time [s]	Current [nA]
0.000	40.396
1.058	42.056
1.999	47.710
2.999	42.296
3.999	44.396
4.999	42.896
6.058	40.639
7.061	43.465
8.000	44.192
9.000	46.395
10.082	46.299
11.063	39.751
12.000	47.167
13.058	42.529
14.062	47.505
15.000	45.091
16.001	46.395
17.001	45.395
18.001	45.495
19.057	45.639
20.000	47.291
21.000	47.595
22.000	46.995
23.000	46.895
24.000	47.495
25.000	45.495
26.001	48.495
27.001	47.695
28.059	44.514
29.058	47.243
30.001	47.503
31.001	47.795
32.001	49.895
33.001	47.095
34.001	47.695
35.060	44.230
36.002	47.129
37.001	48.243
38.001	33.797
39.060	11.236
40.001	18.914
41.001	23.198
42.001	34.597
43.059	38.181
44.062	45.060
45.001	50.474
46.059	44.934
47.063	47.704
48.002	46.108
49.002	44.396
50.059	41.623
51.002	47.397
52.079	43.078
53.002	46.799
54.001	48.143
55.001	47.095
56.002	45.795
57.002	41.896
58.002	46.695
59.002	46.795
60.002	41.096
61.002	44.796
62.002	44.995
63.002	45.096
64.002	46.595
65.002	42.396
66.003	44.396
67.003	44.995
68.003	44.296
69.003	45.595
70.068	43.094
71.003	43.204
72.002	45.841
73.067	44.690
74.002	42.883
75.002	46.995
76.003	44.196
77.069	47.462
78.003	43.679
79.003	45.595
80.003	45.795
81.003	45.995
82.003	41.996
83.003	47.195
84.003	46.895
85.003	45.195
86.004	42.296
87.004	48.095
88.061	43.231
89.061	46.995
90.003	50.313
91.003	43.196
92.003	47.795
93.003	49.995
94.003	46.695
95.003	46.695
96.004	46.495
97.064	44.995
98.004	46.804
99.004	47.695
100.065	44.011
101.004	48.344
102.004	46.295
103.069	44.972
104.004	45.878
105.004	45.195
106.005	42.896
107.062	47.867
108.004	45.006
109.004	42.396
110.004	45.895
111.004	45.895
112.004	17.098
