Time [s]	Current [nA]
0.000	28.030
1.000	67.693
2.000	65.993
3.055	64.543
4.000	63.486
5.000	65.094
6.000	65.059
7.000	67.593
8.000	67.893
9.000	40.996
10.000	23.998
11.000	35.496
12.000	47.895
13.058	55.287
14.000	66.023
15.000	59.394
16.062	67.383
17.001	63.998
18.001	67.793
19.001	68.493
20.001	60.594
21.058	67.638
22.001	69.134
23.000	59.854
24.000	68.593
25.000	68.093
26.001	60.294
27.001	64.894
28.001	64.993
29.064	69.984
30.001	65.628
31.001	58.994
32.001	66.893
33.001	64.494
34.001	65.293
35.001	67.093
36.002	67.593
37.002	60.494
38.002	65.094
39.002	65.093
40.002	67.593
41.069	62.224
42.062	65.955
43.062	65.793
44.061	64.458
45.059	64.186
46.065	67.389
47.060	61.200
48.064	65.332
49.063	64.858
50.055	65.114
51.064	67.189
52.002	62.680
53.003	67.126
54.058	61.795
55.002	62.176
56.003	64.694
57.058	63.785
58.002	70.967
59.002	59.794
60.063	65.686
61.059	64.552
62.002	62.772
63.002	65.993
64.002	67.293
65.002	59.594
66.003	63.894
67.003	70.193
68.003	61.494
69.003	66.993
70.003	59.394
71.003	64.094
72.003	69.893
73.003	58.794
74.003	67.193
75.003	61.594
76.003	64.358
77.003	63.894
78.003	63.794
79.190	35.801
