Time [s]	Current [nA]
0.000	20.307
1.000	66.393
2.000	65.093
3.000	65.593
4.000	62.194
5.001	67.093
6.001	64.993
7.001	64.294
8.056	61.131
9.001	64.967
10.001	67.593
11.001	65.493
12.001	65.493
13.001	64.694
14.057	61.642
15.001	65.423
16.001	67.293
17.001	58.094
18.001	22.898
19.058	28.569
20.057	45.341
21.001	52.219
22.001	59.894
23.001	61.894
24.001	64.394
25.002	65.093
26.063	64.367
27.002	65.489
28.064	61.764
29.002	68.756
30.002	64.194
31.001	60.755
32.001	64.993
33.001	68.193
34.001	64.894
35.002	64.894
36.002	64.394
37.002	60.694
38.002	66.793
39.002	65.393
40.002	63.994
41.002	64.194
42.077	60.924
43.002	65.939
44.002	66.693
45.003	63.794
46.003	57.694
47.059	53.025
48.060	57.537
49.002	56.682
50.002	55.694
51.002	55.194
52.002	55.994
53.002	56.694
54.002	53.595
55.003	59.494
56.003	58.794
57.003	56.394
58.003	56.994
59.003	54.195
60.003	58.994
61.003	57.694
62.003	58.194
63.003	58.594
64.003	58.994
65.003	55.094
66.003	60.855
67.003	60.494
68.003	59.094
69.003	59.994
70.003	60.994
71.063	52.919
72.003	64.674
73.003	60.394
74.003	59.694
75.003	59.694
76.004	60.994
77.004	56.894
78.004	60.994
79.004	60.694
80.004	61.094
81.004	57.094
82.004	59.494
83.107	42.244
