Time [s]	Current [nA]
0.000	17.148
1.094	66.721
2.000	66.770
3.000	65.793
4.000	64.494
5.001	64.894
6.001	67.193
7.001	61.294
8.001	66.493
9.001	64.694
10.001	64.894
11.001	66.993
12.001	59.994
13.001	67.393
14.001	64.894
15.001	64.658
16.001	64.694
17.001	61.594
18.001	66.793
19.001	65.593
20.056	60.468
21.058	64.265
22.001	68.286
23.001	61.594
24.001	66.793
25.002	65.193
26.002	63.694
27.002	64.394
28.002	66.293
29.002	61.094
30.002	64.994
31.002	65.093
32.002	63.394
33.001	63.757
34.008	66.726
35.002	61.625
36.002	64.694
37.002	64.394
38.002	64.394
39.002	60.794
40.002	65.493
41.002	66.193
42.002	64.794
43.002	64.094
44.002	64.494
45.003	61.594
46.003	66.993
47.003	65.893
48.003	64.394
49.060	60.921
50.002	70.694
51.092	60.728
52.002	66.806
53.002	65.593
54.002	64.294
55.003	64.694
56.003	67.093
57.003	61.294
58.003	66.493
59.003	64.894
60.003	64.794
61.003	67.193
62.003	59.994
63.060	64.137
64.003	69.240
65.003	64.594
66.061	61.867
67.004	65.105
68.003	67.561
69.003	66.193
70.003	64.294
71.003	64.794
72.003	65.593
73.003	61.094
74.065	69.673
75.003	62.893
76.004	64.894
77.004	64.794
78.004	7.199
