Time [s]	Current [nA]
0.000	10.113
1.000	57.794
2.055	57.625
3.048	59.913
3.999	62.034
4.999	60.094
6.000	57.794
7.055	59.046
8.000	63.486
9.000	59.094
10.000	59.294
11.000	61.794
12.000	56.594
13.077	61.554
14.000	58.282
15.056	56.298
16.058	58.477
17.001	65.317
18.001	56.794
19.001	60.794
20.000	60.054
21.000	60.994
22.058	59.918
23.069	63.891
24.000	59.500
25.000	61.594
26.001	60.494
27.001	60.794
28.060	60.334
29.063	64.101
30.001	59.269
31.001	61.094
32.001	61.194
33.001	62.594
34.097	56.837
35.001	62.936
36.059	58.745
37.002	64.363
38.001	60.955
39.001	63.394
40.001	58.194
41.001	62.294
42.001	60.294
43.001	60.694
44.069	58.796
45.001	60.831
46.002	62.894
47.002	61.694
48.002	60.494
49.002	60.694
50.002	62.594
51.064	60.258
52.059	55.472
53.002	63.832
54.002	60.194
55.001	60.755
56.002	57.594
57.002	62.594
58.002	60.994
59.002	59.994
60.059	56.948
61.002	65.211
62.002	56.794
63.002	61.294
64.002	59.794
65.002	59.694
66.003	59.594
67.003	62.094
68.003	56.794
69.003	61.394
70.060	56.191
71.003	62.984
72.003	62.094
73.002	56.351
74.002	60.694
75.002	60.594
76.003	59.094
77.003	58.494
78.003	61.594
79.003	56.794
80.060	56.853
81.055	59.291
82.058	58.718
83.003	64.755
84.003	0.400
