Time [s]	Current [nA]
0.000	48.534
0.996	47.987
1.995	53.148
2.938	49.306
3.938	50.095
4.938	49.795
6.001	53.949
6.939	49.675
7.939	47.195
9.000	51.456
9.939	46.960
10.939	48.795
11.939	51.395
12.939	51.595
13.939	44.896
14.939	49.195
15.940	48.995
17.002	52.349
17.940	47.010
18.940	50.295
19.999	46.454
20.939	46.378
21.939	47.695
22.939	49.695
23.939	51.095
24.939	44.995
25.997	50.232
26.940	52.275
27.940	45.795
28.997	49.096
29.940	54.607
31.000	46.788
31.940	47.761
32.940	49.195
34.002	52.820
34.940	49.675
36.001	47.259
36.941	47.761
37.940	49.144
38.940	53.795
39.995	44.640
40.940	53.963
41.940	45.495
42.940	48.895
43.940	53.095
44.940	46.495
45.941	51.195
47.020	46.705
47.941	50.049
48.941	49.895
49.941	49.395
50.999	49.522
51.941	50.632
52.997	47.154
53.941	52.325
54.941	49.395
55.941	51.747
56.941	46.295
57.941	51.295
58.941	51.095
59.941	50.195
60.941	49.395
61.941	51.195
62.941	46.295
63.941	49.795
64.998	46.069
65.942	53.017
66.942	46.995
68.043	50.585
68.942	51.830
69.942	50.295
70.995	47.574
71.942	52.582
72.941	51.947
73.941	47.595
74.941	50.795
75.942	48.595
76.942	49.495
77.942	51.095
78.942	46.395
79.942	50.795
80.942	49.695
81.942	49.195
82.942	49.095
83.942	50.995
84.942	46.695
85.943	49.995
86.943	49.295
88.000	47.110
89.036	54.338
89.943	45.089
91.007	52.344
91.942	48.124
92.942	49.395
93.997	46.820
95.003	51.486
96.006	52.190
96.943	48.341
97.998	47.863
98.991	49.340
99.999	48.904
100.996	5.817
