Time [s]	Current [nA]
0.000	42.896
1.000	47.695
2.000	50.995
3.000	49.695
4.000	48.695
5.001	48.995
6.001	46.795
7.001	50.195
8.001	49.495
9.000	48.944
10.000	49.095
11.000	48.895
12.000	46.895
13.000	50.495
14.000	45.395
15.000	48.795
16.001	48.695
17.001	50.395
18.001	48.995
19.001	46.595
20.001	49.095
21.001	48.495
22.001	48.295
23.001	50.895
24.001	50.795
25.002	44.496
26.002	48.095
27.001	52.147
28.001	44.296
29.001	50.495
30.001	50.895
31.001	44.896
32.001	48.495
33.001	48.695
34.001	50.395
35.060	48.105
36.002	47.978
37.002	48.795
38.061	50.514
39.002	47.179
40.002	51.695
41.012	50.292
42.002	45.753
43.002	48.795
44.001	49.545
45.001	51.295
46.002	28.797
47.002	15.498
48.002	24.498
49.002	33.197
50.002	39.896
51.002	44.796
52.002	46.895
53.002	51.295
54.002	50.295
55.002	50.195
56.003	48.095
57.003	51.195
58.003	50.995
59.003	51.595
60.003	50.295
61.003	50.995
62.002	48.043
63.002	52.595
64.002	46.595
65.002	54.195
66.003	45.995
67.003	51.495
68.003	51.795
69.003	51.295
70.003	47.395
71.003	51.795
72.003	51.395
73.003	53.395
74.058	50.327
75.003	50.154
76.004	50.895
77.004	55.894
78.004	48.395
79.003	53.548
80.003	49.495
81.060	53.259
82.003	49.624
83.003	55.494
84.065	50.372
85.003	50.954
86.066	48.583
87.063	51.650
88.004	49.092
89.004	51.195
90.060	50.563
91.064	53.282
92.004	49.782
93.069	52.859
94.004	49.407
95.004	53.395
96.067	51.407
97.004	49.408
98.004	51.695
99.004	51.095
100.004	50.795
101.004	48.395
102.102	32.419
