Time [s]	Current [nA]
0.000	44.419
0.995	61.401
1.951	64.220
2.942	57.714
4.000	59.635
4.953	64.422
5.957	60.512
6.956	60.655
8.028	58.017
8.943	62.070
9.955	62.247
11.007	58.929
12.008	60.633
13.007	60.755
14.000	57.094
14.948	65.711
16.028	56.528
16.943	60.103
18.008	61.778
19.009	60.034
19.943	60.808
20.955	61.555
21.943	56.371
22.943	60.494
23.943	60.194
24.943	62.594
26.004	59.711
26.943	59.951
27.943	61.594
28.943	60.594
29.943	61.394
30.943	63.394
31.948	62.780
32.943	57.281
34.008	62.435
34.943	58.818
35.944	62.994
36.944	61.094
37.944	57.194
38.944	61.194
40.010	63.221
40.944	59.416
41.944	63.794
42.944	58.594
43.944	62.294
45.000	58.233
45.944	64.893
46.953	62.630
48.014	58.807
48.944	62.467
49.944	61.694
50.944	61.194
51.944	60.794
52.954	62.667
53.944	58.378
54.944	61.594
55.945	59.994
56.945	60.394
57.945	61.094
59.011	60.594
59.945	61.022
60.945	60.694
61.944	60.454
62.944	59.994
64.004	59.617
64.944	60.313
65.945	63.494
66.945	63.194
68.004	59.012
68.951	66.942
69.945	59.652
70.945	64.494
71.945	58.194
72.945	62.594
73.945	62.294
74.945	64.894
75.954	64.379
76.959	62.382
78.011	61.211
78.946	60.101
79.945	63.057
81.007	61.576
81.999	7.661
