Time [s]	Current [nA]
0.000	52.078
1.001	63.630
1.944	66.377
2.944	62.494
3.943	64.558
4.943	57.794
5.944	64.194
6.944	62.794
7.944	61.894
8.944	61.894
9.944	59.394
10.944	64.194
11.944	62.194
12.944	61.094
13.944	62.594
14.944	58.694
16.036	63.697
16.945	64.130
17.945	62.994
18.945	62.594
19.945	62.694
20.945	59.494
21.944	65.659
22.944	57.494
23.944	62.494
24.944	62.394
25.945	63.794
26.945	64.394
27.945	59.794
28.945	64.394
29.945	64.194
30.945	63.894
31.945	66.293
32.945	60.194
33.945	64.194
34.945	63.194
35.946	62.894
36.946	62.994
37.946	60.194
38.945	64.858
40.007	60.163
40.945	67.371
41.945	63.694
42.945	59.994
43.945	65.293
44.945	63.094
45.946	63.794
46.946	62.594
48.008	58.563
48.946	63.959
49.946	65.893
50.946	63.294
51.946	62.494
52.946	57.294
53.946	65.093
55.035	59.185
55.947	70.388
56.946	58.653
57.946	63.094
58.946	62.994
59.946	65.193
60.946	66.193
61.946	57.594
62.946	67.093
63.946	56.894
64.946	64.294
65.947	62.994
66.947	59.794
67.947	62.894
68.947	62.594
69.947	62.094
71.004	60.732
71.947	62.772
73.015	63.477
73.946	61.111
74.946	61.794
75.947	63.094
77.009	60.446
77.947	63.213
78.947	62.894
79.947	7.299
