Time [s]	Current [nA]
0.000	36.060
0.938	43.492
1.997	48.720
2.990	47.226
3.938	48.729
4.938	43.096
5.939	48.495
6.998	45.321
7.939	45.691
8.939	46.195
9.939	47.295
10.997	46.026
11.938	51.004
12.938	42.696
13.938	46.995
14.999	48.063
15.939	50.048
16.939	44.196
17.939	48.695
18.939	43.296
19.939	47.195
20.939	47.395
21.998	46.360
22.939	47.923
24.023	49.534
25.002	43.349
25.940	50.208
26.940	47.295
27.940	44.396
28.998	45.837
30.009	46.781
30.999	47.369
31.939	44.570
32.939	47.595
33.939	48.095
34.939	46.795
35.940	42.996
37.002	47.924
37.940	44.772
38.940	47.095
39.940	47.895
40.998	44.135
41.940	43.626
42.999	48.248
43.940	49.304
45.027	46.036
45.999	52.361
47.000	49.745
47.940	47.017
48.940	48.895
49.940	50.495
50.999	47.871
51.940	48.242
52.940	48.695
53.940	52.795
54.940	45.795
55.941	50.895
56.941	46.895
58.003	51.501
58.995	44.451
60.004	53.315
60.941	49.088
61.941	46.395
62.999	47.160
63.940	51.748
64.940	48.295
65.941	42.096
66.941	29.697
67.941	40.196
68.941	46.395
69.941	49.095
70.941	50.195
72.007	47.838
72.941	47.854
73.941	47.595
75.004	45.527
75.942	51.756
76.942	47.995
77.942	45.495
78.942	49.995
79.942	47.895
80.941	47.843
81.941	44.196
82.941	49.295
83.941	49.195
84.941	43.596
85.942	49.195
87.004	50.372
87.996	43.342
88.942	52.003
90.004	47.076
90.942	46.264
91.942	47.695
92.942	47.495
93.942	44.796
94.942	47.695
95.943	49.295
96.943	48.195
97.943	47.595
98.942	47.643
100.006	46.988
100.942	47.217
101.942	43.596
102.997	48.242
103.942	45.075
104.942	48.195
105.943	14.099
