Time [s]	Current [nA]
0.000	35.996
1.062	44.628
2.000	50.421
3.000	44.996
4.000	47.895
5.001	50.295
6.001	48.695
7.001	43.796
8.001	47.795
9.001	49.095
10.001	49.495
11.001	43.596
12.000	48.043
13.000	47.595
14.000	48.795
15.001	47.395
16.001	44.696
17.001	47.095
18.001	47.595
19.001	48.195
20.001	49.795
21.001	45.295
22.001	48.795
23.001	48.595
24.001	48.595
25.002	48.195
26.067	47.319
27.002	48.979
28.002	49.395
29.002	47.995
30.001	47.743
31.001	44.296
32.001	49.595
33.001	43.096
34.001	47.995
35.002	46.495
36.002	46.995
37.002	48.895
38.002	44.196
39.002	47.995
40.002	47.595
41.002	47.795
42.002	48.195
43.064	45.099
44.002	44.985
45.003	47.795
46.003	46.295
47.002	45.041
48.002	46.695
49.002	48.095
50.002	42.896
51.002	46.195
52.002	46.995
53.002	48.095
54.002	47.595
55.003	42.996
56.003	45.995
57.003	45.895
58.003	47.795
59.003	49.195
60.003	43.496
61.003	47.295
62.064	48.534
63.003	44.830
64.003	48.195
65.072	45.407
66.003	48.008
67.003	46.895
68.003	46.495
69.003	46.495
70.003	43.896
71.003	48.895
72.003	42.596
73.003	51.095
74.003	47.095
75.095	44.359
76.004	49.610
77.004	43.896
78.004	47.395
79.004	46.695
80.004	46.795
81.004	48.495
82.003	43.940
83.086	47.918
84.003	47.433
85.003	48.195
86.004	47.795
87.004	48.295
88.004	43.296
89.004	47.895
90.065	43.257
91.004	49.196
92.004	43.896
93.004	47.895
94.004	46.195
95.067	43.687
96.005	49.036
97.005	47.195
98.005	45.095
99.066	45.424
100.004	49.462
101.004	46.495
102.004	46.595
103.004	44.296
104.004	47.995
105.004	23.998
106.076	21.006
107.070	29.072
108.005	13.368
