Time [s]	Current [nA]
0.000	38.996
1.000	46.195
1.999	47.943
3.053	46.011
4.061	46.325
5.000	44.665
6.000	46.795
7.000	49.495
8.056	46.681
9.000	45.229
10.000	46.495
11.000	45.795
12.000	45.795
13.059	45.510
14.000	47.073
15.001	46.695
16.001	45.895
17.001	47.195
18.001	47.795
19.001	47.295
20.000	41.838
21.000	46.295
22.000	45.595
23.000	45.295
24.000	47.395
25.001	48.095
26.001	42.996
27.001	45.395
28.001	46.395
29.001	47.595
30.001	48.495
31.001	42.796
32.001	46.295
33.061	47.731
34.001	44.357
35.002	47.495
36.002	47.395
37.062	43.486
38.001	45.256
39.061	47.825
40.001	45.740
41.105	47.006
42.060	43.346
43.001	44.416
44.001	45.195
45.002	45.695
46.064	48.583
47.002	45.305
48.002	42.696
49.063	47.403
50.002	44.404
51.002	47.495
52.002	47.395
53.060	45.553
54.002	40.760
55.001	18.016
56.063	22.524
57.002	30.561
58.002	38.696
59.002	38.396
60.002	43.196
61.002	46.395
62.093	47.933
63.060	45.497
64.002	47.341
65.002	46.595
66.003	45.895
67.003	46.495
68.003	48.695
69.062	45.982
70.003	46.010
71.003	47.195
72.002	46.242
73.002	46.695
74.002	47.595
75.002	47.995
76.003	42.296
77.057	47.339
78.003	43.970
79.003	47.395
80.003	48.295
81.009	47.411
82.003	43.054
83.003	45.695
84.003	45.995
85.065	49.100
86.004	45.895
87.004	42.496
88.004	45.895
89.004	45.995
90.003	47.443
91.003	47.095
92.003	42.896
93.003	46.795
94.003	46.995
95.003	46.995
96.004	48.295
97.004	48.295
98.004	43.696
99.004	46.495
100.004	46.495
101.004	47.795
102.004	47.495
103.066	45.382
104.004	45.731
105.004	46.295
106.067	47.170
107.004	46.420
108.004	47.595
109.004	42.296
110.004	13.399
