Time [s]	Current [nA]
0.000	12.931
1.052	43.057
1.999	47.830
2.999	41.596
3.999	48.295
5.000	47.195
6.000	42.296
7.000	45.695
8.000	49.395
9.000	43.596
10.000	48.595
11.000	42.696
12.000	45.495
13.000	46.395
14.000	45.695
15.001	47.995
16.001	48.295
17.060	44.188
18.001	49.198
19.000	42.638
20.000	47.895
21.059	44.755
22.072	45.800
23.000	45.793
24.000	46.195
25.001	50.095
26.001	43.396
27.001	46.695
28.062	42.691
29.060	45.186
30.001	43.566
31.001	40.696
32.001	35.596
33.001	34.797
34.001	33.697
35.002	34.397
36.001	34.331
37.001	35.996
38.001	35.796
39.062	33.456
40.001	34.075
41.001	39.196
42.001	34.797
43.001	36.296
44.001	38.096
45.002	34.797
46.070	39.228
47.002	37.013
48.002	38.496
49.002	39.696
50.002	34.697
51.002	36.996
52.002	39.296
53.082	37.589
54.001	37.863
55.001	39.896
56.002	35.896
57.002	38.896
58.002	38.596
59.002	40.096
60.002	40.496
61.002	36.096
62.062	39.524
63.002	37.018
64.002	38.796
65.002	40.596
66.003	41.996
67.003	37.496
68.003	39.396
69.061	40.072
70.003	39.274
71.060	40.015
72.080	40.192
73.002	41.102
74.062	41.411
75.002	39.571
76.065	43.593
77.003	41.574
78.003	37.996
79.003	42.296
80.003	44.995
81.003	40.196
82.003	45.695
83.003	40.496
84.060	45.123
85.003	40.505
86.004	47.595
87.004	41.196
88.004	44.796
89.014	42.570
90.003	39.127
91.003	42.696
92.003	44.995
93.103	45.086
94.003	44.218
95.003	39.496
96.004	43.096
97.004	47.795
98.004	41.696
99.004	46.195
100.065	42.409
101.058	44.406
102.004	42.913
103.004	45.395
104.004	46.295
105.063	44.514
106.004	44.629
107.004	45.096
108.065	46.367
109.004	46.641
110.004	47.395
111.004	41.696
112.004	45.995
113.059	46.536
114.004	43.064
115.004	47.795
116.005	47.995
117.005	43.096
118.005	46.295
119.005	25.397
