Time [s]	Current [nA]
0.000	11.359
1.000	42.996
2.000	46.395
3.063	43.269
4.000	48.981
5.001	45.695
6.001	43.696
7.001	47.395
8.001	43.096
9.001	45.995
10.001	46.295
11.001	47.995
12.001	42.996
13.000	46.842
14.000	45.295
15.067	46.524
16.001	44.321
17.001	48.295
18.001	43.796
19.001	45.795
20.001	45.795
21.001	45.895
22.001	43.296
23.001	46.895
24.001	46.295
25.002	45.495
26.002	41.696
27.002	49.395
28.002	43.096
29.002	47.195
30.002	42.296
31.001	45.841
32.001	45.095
33.001	46.895
34.001	45.595
35.002	43.896
36.002	45.395
37.002	45.095
38.002	45.395
39.002	47.195
40.002	43.896
41.064	47.829
42.056	41.931
43.002	48.410
44.002	46.995
45.003	47.995
46.003	44.896
47.060	45.312
48.002	49.252
49.002	45.795
50.002	48.295
51.064	45.946
52.002	44.665
53.002	46.395
54.064	44.063
55.003	49.888
56.003	44.596
57.003	48.895
58.015	46.240
59.003	42.506
60.003	45.995
61.003	47.695
62.003	46.795
63.003	41.696
64.003	46.295
65.003	45.795
66.003	45.341
67.003	47.495
68.003	43.696
69.003	46.495
70.003	46.695
71.065	48.489
72.003	46.477
73.003	42.296
74.003	47.895
75.003	45.995
76.004	45.395
77.004	46.195
78.004	43.996
79.004	47.395
80.004	46.595
81.004	44.995
82.004	45.395
83.003	41.838
84.003	45.795
85.060	45.071
86.004	44.911
87.004	45.195
88.061	46.258
89.004	44.852
90.004	46.995
91.004	41.896
92.004	45.995
93.004	45.695
94.004	45.895
95.004	47.395
96.005	42.296
97.005	45.495
98.067	46.606
99.005	43.706
100.005	48.295
101.004	43.539
102.004	45.895
103.004	46.495
104.066	43.875
105.004	48.396
106.005	42.696
107.059	44.113
108.063	45.314
109.005	48.297
110.058	20.226
