Time [s]	Current [nA]
0.000	12.066
1.055	32.224
2.064	36.270
3.055	34.204
4.000	38.726
5.066	34.269
6.063	36.606
7.001	36.990
8.001	36.096
9.063	35.025
10.001	39.015
11.001	37.396
12.001	37.596
13.000	35.032
14.000	37.596
15.000	37.396
16.001	33.897
17.001	36.796
18.001	37.096
19.001	38.896
20.001	40.396
21.001	35.096
22.001	40.896
23.001	34.797
24.001	39.596
25.002	39.196
26.061	35.690
27.002	37.191
28.002	39.096
29.002	38.396
30.001	40.236
31.001	36.896
32.001	39.796
33.001	38.996
34.001	38.996
35.001	38.196
36.063	42.126
37.002	38.335
38.002	39.696
39.002	39.296
40.002	39.696
41.002	38.396
42.002	41.996
43.005	40.475
44.002	37.007
45.002	40.096
46.061	39.694
47.003	44.157
48.002	37.734
49.002	41.196
50.002	40.396
51.002	39.996
52.002	41.996
53.002	38.596
54.002	40.796
55.002	40.396
56.003	39.796
57.003	41.596
58.003	36.996
59.003	43.496
60.003	41.496
61.003	40.496
62.003	40.396
63.003	38.996
64.003	42.596
65.002	38.034
66.003	40.496
67.003	40.796
68.003	41.896
69.003	43.496
70.003	38.696
71.003	41.596
72.003	41.096
73.003	41.796
74.003	42.196
75.003	39.296
76.004	41.996
77.004	23.198
78.004	18.498
79.004	25.697
80.004	30.797
81.004	37.696
82.004	38.596
83.003	41.738
84.005	41.114
85.003	39.375
86.004	42.696
87.074	38.781
88.004	41.179
89.004	40.596
90.068	41.537
91.004	40.487
92.004	41.596
93.004	37.696
94.004	40.496
95.004	40.996
96.070	43.751
97.005	41.065
98.005	38.396
99.005	40.496
100.004	40.236
101.070	41.365
102.004	40.360
103.004	38.296
104.004	41.096
105.004	41.396
106.061	39.011
107.009	43.983
108.005	36.844
109.005	42.196
110.005	40.796
111.005	40.496
112.005	40.896
113.005	39.696
114.067	40.580
115.005	44.345
116.006	41.396
117.066	38.109
118.005	39.400
119.005	41.996
120.005	38.096
121.005	40.396
122.005	40.796
123.005	40.496
124.060	40.375
125.005	45.392
126.006	37.796
127.006	41.196
128.024	25.931
