Time [s]	Current [nA]
0.000	12.191
1.055	43.598
2.000	49.413
3.060	45.844
4.057	43.426
5.001	50.048
6.000	46.742
7.000	46.495
8.000	45.895
9.060	44.713
10.057	43.225
11.000	49.518
12.000	45.595
13.000	37.196
14.000	33.497
15.001	35.196
16.001	35.996
17.001	34.697
18.001	34.996
19.001	34.697
20.001	32.797
21.057	34.561
22.064	35.150
23.000	38.137
24.000	35.096
25.000	32.597
26.095	36.559
27.001	37.524
28.001	36.996
29.001	35.996
30.001	35.996
31.001	33.997
32.001	37.896
33.001	37.096
34.001	37.296
35.058	34.750
36.002	39.932
37.063	36.943
38.002	37.376
39.002	38.596
40.002	37.596
41.001	37.934
42.002	40.056
43.001	37.334
44.060	38.334
45.001	42.716
46.002	40.196
47.002	40.996
48.068	40.334
49.002	39.611
50.002	40.596
51.002	38.196
52.002	41.796
53.002	43.696
54.002	38.596
55.089	42.998
56.003	42.775
57.069	42.679
58.067	42.280
59.002	43.418
60.002	41.296
61.002	42.996
62.002	42.996
63.002	43.496
64.002	44.096
65.002	39.196
66.003	44.796
67.061	40.544
68.003	46.598
69.003	43.396
70.003	44.396
71.003	41.196
72.003	45.195
73.003	44.696
74.003	44.496
75.003	41.996
76.003	47.443
77.003	45.795
78.066	41.670
79.003	47.060
80.003	43.796
81.003	41.996
82.065	42.839
83.003	47.330
84.003	44.396
85.003	44.096
86.004	45.895
87.004	42.696
88.004	46.395
89.004	45.295
90.004	44.696
91.004	44.396
92.004	45.995
93.003	42.738
94.003	45.995
95.003	46.295
96.004	45.695
97.004	45.295
98.004	42.096
99.004	48.095
100.004	45.795
101.004	44.696
102.004	44.896
103.063	44.188
104.004	45.798
105.004	46.595
106.005	46.495
107.005	45.795
108.005	45.995
109.007	46.802
110.005	42.681
111.066	44.199
112.062	46.582
113.004	48.297
114.059	41.133
115.004	49.836
116.005	42.996
117.005	46.195
118.005	45.495
119.069	23.964
