Time [s]	Current [nA]
0.000	14.474
1.000	49.895
2.000	51.595
3.000	46.995
4.084	50.917
5.001	50.213
6.066	50.887
7.001	47.910
8.063	48.583
9.001	50.421
10.001	49.995
11.001	49.795
12.001	50.795
13.001	46.895
14.001	49.595
15.001	51.246
16.001	48.995
17.001	48.895
18.001	49.895
19.001	47.495
20.063	53.102
21.064	46.149
22.001	53.463
23.001	50.095
24.001	51.595
25.002	45.995
26.002	52.195
27.064	46.982
28.002	53.086
29.002	49.395
30.002	47.495
31.002	52.095
32.001	51.346
33.001	49.795
34.058	47.204
35.002	53.335
36.002	47.495
37.002	51.795
38.002	50.495
39.002	49.995
40.002	49.795
41.002	47.095
42.002	51.695
43.002	50.995
44.002	49.995
45.003	49.395
46.003	49.295
47.003	47.095
48.003	51.895
49.061	47.916
50.002	53.023
51.057	47.010
52.002	50.577
53.058	49.048
54.002	53.702
55.065	47.924
56.003	53.300
57.003	50.395
58.003	47.995
59.003	51.895
60.003	50.595
61.003	49.995
62.003	49.995
63.003	47.495
64.003	50.595
65.003	51.995
66.004	50.495
67.003	49.845
68.003	49.995
69.003	47.695
70.003	51.795
71.003	50.695
72.003	49.795
73.003	49.495
74.003	51.595
75.073	47.516
76.004	50.156
77.004	49.395
78.004	49.495
79.004	49.895
80.004	47.595
81.004	51.395
82.004	51.195
83.004	49.895
84.004	49.595
85.003	49.445
86.004	47.095
87.004	51.695
88.004	50.195
89.004	49.695
90.004	49.995
91.004	51.295
92.004	47.595
93.004	50.895
94.004	49.595
95.004	49.295
96.005	49.595
97.005	47.695
98.005	52.495
99.005	50.295
100.063	47.254
101.390	0.301
