Time [s]	Current [nA]
0.000	8.915
1.000	42.196
2.000	42.496
3.000	39.696
4.060	42.920
4.999	40.039
6.000	41.096
7.000	42.996
8.058	40.166
9.061	41.571
10.000	39.506
11.000	40.996
12.000	41.196
13.000	43.296
14.000	42.896
15.000	38.196
16.001	40.996
17.001	40.896
18.001	42.596
19.001	42.896
20.079	38.401
21.001	40.560
22.000	40.937
23.000	40.796
24.000	43.196
25.059	40.544
26.001	40.123
27.001	41.096
28.001	41.096
29.001	42.796
30.001	42.396
31.001	37.696
32.001	41.096
33.001	40.296
34.059	41.773
35.001	41.185
36.002	39.496
37.002	41.196
38.002	40.396
39.001	40.136
40.001	42.196
41.078	38.436
42.001	41.274
43.001	40.496
44.001	40.496
45.001	40.596
46.002	42.396
47.002	42.396
48.002	38.296
49.002	40.896
50.002	40.596
51.002	40.696
52.002	42.296
53.002	42.396
54.002	37.796
55.002	40.896
56.003	40.696
57.002	42.038
58.060	39.505
59.002	39.911
60.002	40.096
61.002	40.796
62.002	40.696
63.002	42.696
64.007	41.488
65.002	37.484
66.003	40.896
67.003	41.196
68.065	43.969
69.003	37.416
70.003	41.096
71.003	41.596
72.003	40.596
73.003	40.296
74.002	42.338
75.002	42.596
76.003	38.096
77.003	40.496
78.003	40.896
79.003	42.296
80.003	42.496
81.003	37.496
82.003	40.796
83.003	40.496
84.003	40.596
85.003	42.496
86.004	43.196
87.004	38.296
88.004	41.496
89.060	42.515
90.004	41.309
91.004	41.596
92.003	38.935
93.003	40.996
94.062	42.300
95.063	40.796
96.004	41.441
97.062	40.166
98.004	40.442
99.004	41.196
100.004	41.396
101.004	41.696
102.004	42.896
103.004	42.896
104.004	38.096
105.062	42.191
106.005	39.233
107.005	42.796
108.063	41.300
109.004	40.272
110.004	40.896
111.004	41.196
112.074	41.958
113.004	42.254
114.004	42.796
115.004	38.096
116.005	41.096
117.005	40.896
118.067	43.687
119.005	41.147
120.098	37.233
121.005	40.680
122.005	36.796
