Time [s]	Current [nA]
0.000	23.469
1.058	46.498
2.062	49.099
3.000	45.198
3.999	46.142
4.999	45.795
6.000	46.495
7.000	44.496
8.000	47.995
9.000	46.895
10.055	43.692
11.000	48.990
12.000	48.495
13.000	44.196
14.000	47.295
15.000	47.795
16.001	46.895
17.001	46.795
18.001	48.595
19.063	46.982
20.001	45.731
21.000	46.642
22.000	46.795
23.000	48.595
24.068	46.812
25.000	45.274
26.001	47.095
27.001	46.895
28.001	46.595
29.001	49.295
30.063	46.794
31.001	45.624
32.001	46.695
33.001	46.495
34.001	48.495
35.083	44.306
36.056	45.422
37.002	49.995
38.002	46.895
39.001	46.942
40.001	48.395
41.001	44.596
42.001	47.795
43.001	46.795
44.001	46.995
45.001	48.595
46.002	44.396
47.002	48.295
48.002	47.295
49.067	48.070
50.058	42.781
51.002	51.690
52.002	44.696
53.002	47.695
54.002	46.595
55.002	46.595
56.002	47.343
57.002	44.796
58.055	45.769
59.002	45.930
60.002	34.497
61.002	41.996
62.002	49.795
63.002	46.995
64.002	49.495
65.062	44.755
66.058	44.975
67.003	47.614
68.063	44.524
69.003	46.378
70.061	43.946
71.003	48.827
72.003	46.495
73.062	45.132
74.002	46.166
75.002	47.395
76.003	46.995
77.058	43.598
78.003	48.461
79.062	45.321
80.003	46.542
81.003	47.295
82.061	43.663
83.003	50.844
84.003	49.595
85.003	43.596
86.066	51.596
87.004	46.371
88.004	47.695
89.004	47.795
90.059	47.199
91.003	48.194
92.003	48.495
93.003	47.595
94.003	47.995
95.003	48.995
96.004	48.995
97.004	45.695
98.004	48.395
99.004	47.795
100.062	45.459
101.004	52.755
102.066	47.924
103.058	44.149
104.004	50.523
105.004	47.795
106.005	47.995
107.058	15.478
