Time [s]	Current [nA]
0.000	29.697
1.000	40.896
2.000	40.696
3.000	40.296
4.000	41.196
5.001	37.896
6.058	38.028
7.001	42.095
8.001	40.096
9.001	41.696
10.001	37.396
11.001	41.596
12.001	40.496
13.001	40.196
14.001	40.296
15.002	41.996
16.001	38.134
17.001	38.896
18.056	28.907
19.001	37.986
20.001	43.096
21.001	39.296
22.001	44.996
23.001	41.996
24.001	39.096
25.002	38.796
26.002	40.396
27.002	37.496
28.002	40.396
29.002	38.996
30.002	39.196
31.002	39.896
32.002	36.996
33.001	40.937
34.001	40.196
35.001	39.896
36.002	40.096
37.002	37.496
38.002	41.196
39.002	40.496
40.002	39.596
41.002	39.496
42.002	39.496
43.002	38.496
44.002	41.296
45.003	40.296
46.059	37.118
47.003	41.309
48.003	40.896
49.003	37.996
50.003	39.896
51.002	39.836
52.002	39.896
53.002	41.296
54.002	39.296
55.002	43.096
56.003	42.096
57.003	41.496
58.003	41.496
59.003	43.096
60.003	39.196
61.003	42.896
62.003	42.196
63.059	39.106
64.003	43.746
65.003	43.396
66.004	39.596
67.004	42.296
68.003	41.137
69.003	41.396
70.003	43.196
71.003	38.096
72.003	43.196
73.003	41.696
74.059	38.822
75.003	43.852
76.004	43.096
77.004	39.196
78.004	41.896
79.004	41.396
80.004	41.296
81.004	41.896
82.009	41.886
83.058	37.365
84.063	41.090
85.004	43.566
86.004	41.537
87.004	39.396
88.004	43.096
89.061	39.542
90.004	43.898
91.004	41.096
92.091	42.590
93.004	37.784
94.004	42.896
95.004	41.796
96.005	41.196
97.005	41.196
98.005	42.496
99.005	39.096
100.005	41.696
101.005	41.596
102.005	40.996
103.004	40.937
104.004	38.696
105.004	42.896
106.005	41.796
107.005	40.896
108.005	40.596
109.005	42.696
110.005	38.296
111.005	42.296
112.005	41.196
113.005	40.596
114.005	40.796
115.005	42.396
116.006	39.096
117.064	38.937
118.006	43.202
119.064	38.843
120.064	41.896
121.005	39.847
122.005	42.496
123.005	19.898
