Time [s]	Current [nA]
0.000	29.627
1.000	43.296
2.000	43.996
3.000	44.596
4.000	39.896
5.001	46.495
6.001	44.296
7.001	43.296
8.057	41.852
9.001	48.512
10.001	42.196
11.001	44.995
12.058	41.528
13.001	46.655
14.096	40.453
15.002	45.410
16.059	42.853
17.001	47.129
18.001	43.896
19.001	34.097
20.001	36.796
21.001	41.096
22.001	47.095
23.060	43.622
24.001	48.561
25.002	43.496
26.002	40.996
27.002	43.996
28.059	40.677
29.002	45.064
30.002	43.196
31.002	40.496
32.002	44.696
33.002	43.296
34.002	43.596
35.001	42.939
36.002	43.296
37.062	42.071
38.002	43.400
39.002	43.696
40.002	43.696
41.002	43.596
42.002	41.396
43.002	44.995
44.002	45.395
45.003	44.096
46.003	43.996
47.003	44.296
48.003	41.796
49.003	46.195
50.003	44.196
51.061	41.300
52.002	46.117
53.002	45.095
54.083	41.069
55.002	45.262
56.003	43.696
57.003	43.296
58.003	44.096
59.063	42.543
60.003	43.506
61.003	43.796
62.003	43.196
63.003	43.496
64.003	43.796
65.064	42.732
66.060	41.161
67.004	47.135
68.004	43.496
69.004	43.496
70.003	41.037
71.060	42.758
72.003	46.019
73.003	43.696
74.003	42.896
75.003	43.296
76.004	40.896
77.061	42.569
78.004	46.443
79.004	43.396
80.004	43.196
81.059	42.460
82.004	43.594
83.004	43.796
84.004	44.396
85.004	43.296
86.063	41.111
87.004	43.460
88.004	44.796
89.061	41.718
90.004	45.913
91.004	42.896
92.004	40.696
93.004	43.896
94.004	45.795
95.004	43.796
96.005	43.796
97.005	43.796
98.005	41.496
99.005	45.195
100.005	44.496
101.005	43.496
102.005	43.796
103.005	44.596
104.005	40.096
105.004	46.242
106.005	44.496
107.065	41.977
108.005	42.230
109.067	46.888
110.064	41.721
111.005	43.460
112.066	44.953
113.005	41.742
114.005	43.896
115.005	18.998
