Time [s]	Current [nA]
0.000	24.085
1.000	53.595
2.055	51.180
3.000	52.058
4.000	55.794
5.000	49.244
6.000	52.995
7.000	52.595
8.000	52.795
9.080	49.439
10.000	55.429
11.000	52.495
12.062	54.797
13.000	50.315
14.000	53.495
15.001	49.095
16.001	51.795
17.001	50.495
18.001	51.195
19.001	51.095
20.056	49.948
21.001	51.423
22.001	51.095
23.000	50.746
24.000	50.595
25.001	47.895
26.001	53.495
27.001	50.995
28.001	51.195
29.001	51.595
30.001	51.395
31.001	48.295
32.063	49.995
33.001	54.792
34.001	51.195
35.002	50.395
36.002	48.295
37.002	51.995
38.002	46.295
39.002	52.395
40.001	50.546
41.063	51.501
42.001	49.675
43.001	51.495
44.001	45.695
45.006	53.282
46.002	44.574
47.002	50.995
48.071	47.797
49.002	49.404
50.002	49.695
51.002	49.295
52.002	49.795
53.002	51.495
54.002	47.195
55.003	51.195
56.003	50.695
57.058	47.389
58.002	54.656
59.002	44.996
60.058	49.711
61.002	53.490
62.002	50.295
63.002	50.195
64.002	47.295
65.003	51.595
66.059	47.533
67.059	48.895
68.003	46.923
69.003	48.795
70.003	50.595
71.003	49.595
72.071	44.846
73.061	49.490
74.003	46.386
75.002	50.646
76.003	51.395
77.003	44.896
78.003	48.495
79.003	53.595
80.003	44.096
81.059	48.007
82.003	53.279
83.003	39.796
84.003	30.997
85.003	37.696
86.004	46.595
87.004	49.995
88.004	45.595
89.004	49.795
90.004	47.895
91.004	46.895
92.004	48.695
93.003	44.540
94.068	49.009
95.069	46.295
96.004	45.236
97.004	50.495
98.004	45.295
99.004	47.995
100.004	48.295
101.056	33.932
