Time [s]	Current [nA]
0.000	37.721
0.945	55.233
1.945	54.695
2.945	50.395
3.945	54.195
5.002	49.900
5.946	55.185
6.946	54.795
7.946	47.995
8.946	54.895
10.003	50.421
10.945	56.364
11.945	53.195
12.945	54.695
13.945	49.995
14.945	53.995
15.946	53.195
16.946	52.295
17.946	52.795
18.946	52.595
19.946	49.895
20.946	53.495
22.003	49.002
23.004	52.342
23.946	52.755
24.946	54.395
25.947	54.295
27.004	49.286
27.946	54.347
28.946	52.095
29.946	54.595
30.946	49.495
31.946	52.495
32.946	51.495
34.008	53.949
35.006	48.039
35.947	51.855
36.947	33.997
37.947	38.896
38.947	46.495
39.947	50.095
40.947	54.395
41.947	50.595
42.947	53.095
43.947	50.695
44.947	50.595
45.947	52.147
46.947	47.595
47.947	53.095
48.947	52.495
49.947	51.895
50.947	51.495
51.947	48.995
52.947	52.495
53.947	51.495
54.947	50.795
55.948	50.895
56.948	52.595
57.948	46.395
58.948	53.495
59.948	50.495
60.948	50.595
61.999	47.284
62.947	54.847
63.947	48.595
64.947	51.695
65.948	49.795
66.948	48.995
67.948	51.395
68.948	51.495
70.011	50.418
70.948	48.768
71.948	50.495
72.948	50.195
73.948	52.595
74.948	48.395
75.949	50.295
76.949	50.095
77.949	50.095
78.949	50.295
79.949	48.495
80.948	52.647
81.948	51.295
82.948	50.595
83.948	50.495
84.948	52.795
85.949	48.295
86.949	50.995
87.949	52.195
88.949	51.295
90.012	53.334
91.003	48.936
92.012	53.017
92.949	50.368
93.949	51.395
94.949	50.895
96.004	50.849
96.950	50.629
97.949	7.607
