Time [s]	Current [nA]
0.000	9.714
1.000	42.396
2.000	44.696
3.000	37.796
4.000	41.696
5.001	41.696
6.000	44.440
7.058	41.111
8.000	41.291
9.065	45.441
10.000	41.279
11.000	42.496
12.000	43.996
13.056	42.041
14.000	40.568
15.001	41.796
16.001	42.296
17.058	41.812
18.001	46.337
19.061	41.034
20.001	40.102
21.001	41.596
22.001	41.996
23.058	41.718
24.000	42.352
25.001	42.396
26.001	41.196
27.001	41.096
28.001	42.796
29.001	41.596
30.001	39.396
31.001	41.596
32.001	41.696
33.063	43.216
34.001	42.533
35.002	40.596
36.002	42.896
37.002	41.696
38.002	42.296
39.002	43.096
40.002	44.196
41.001	40.436
42.062	44.011
43.061	42.338
44.001	41.060
45.059	42.380
46.002	41.883
47.002	42.896
48.002	42.496
49.002	41.696
50.002	41.696
51.002	43.696
52.002	40.096
53.002	42.796
54.002	42.196
55.062	44.188
56.003	43.248
57.003	44.696
58.002	39.235
59.002	42.496
60.064	43.969
61.064	43.696
62.002	43.173
63.002	44.796
64.064	41.051
65.002	40.827
66.003	42.096
67.003	44.596
68.073	40.557
69.003	42.576
70.003	43.096
71.064	43.728
72.003	39.719
73.003	43.996
74.003	40.496
75.003	42.296
76.064	42.543
77.003	40.039
78.003	43.496
79.003	43.196
80.003	40.496
81.003	42.696
82.003	41.996
83.003	41.996
84.003	43.996
85.003	43.496
86.004	39.396
87.004	42.096
88.004	42.296
89.092	43.378
90.004	43.088
91.004	39.696
92.004	42.196
93.064	43.015
94.003	40.890
95.003	43.096
96.004	42.696
97.004	38.396
98.004	41.896
99.068	43.699
100.091	40.758
101.004	43.917
102.004	39.496
103.004	42.396
104.004	41.796
105.004	41.696
106.005	43.996
107.005	44.496
108.005	39.096
109.005	42.896
110.005	42.196
111.004	42.138
112.004	41.096
113.004	44.796
114.004	43.196
115.004	41.896
116.005	42.996
117.005	44.096
118.079	41.988
119.005	8.962
