Time [s]	Current [nA]
0.000	14.722
1.000	41.204
1.938	43.075
2.938	38.204
3.938	42.704
4.938	40.704
5.937	40.204
6.996	38.909
7.937	43.894
8.937	38.904
9.937	42.304
10.945	41.175
11.945	40.904
12.949	40.642
13.937	39.478
14.949	41.605
15.936	38.263
16.935	41.245
17.935	41.204
18.935	40.904
19.935	42.504
20.935	39.204
21.935	41.404
22.935	40.704
23.935	41.204
24.935	38.604
25.934	41.204
26.997	40.362
27.934	44.081
28.934	41.404
29.934	41.404
30.999	40.661
31.934	41.181
32.992	38.851
33.934	43.635
34.934	41.304
35.932	37.541
36.932	42.404
37.932	42.404
38.939	40.719
39.941	40.323
40.932	36.936
41.932	42.004
42.942	41.984
43.932	37.681
44.932	41.004
45.931	41.004
47.022	40.884
47.931	41.478
48.931	38.004
49.931	41.004
50.931	40.104
51.994	40.926
52.930	39.854
53.992	39.081
54.930	39.556
55.929	40.304
56.929	40.804
57.991	42.471
58.988	37.817
59.929	40.705
60.985	38.546
61.929	34.749
62.929	24.902
63.943	32.646
64.986	33.560
65.928	41.998
66.987	38.720
67.989	41.222
68.930	43.044
69.927	38.218
70.985	39.702
71.990	41.099
72.927	39.598
73.927	40.504
74.927	41.804
76.028	38.116
76.991	43.410
77.926	39.255
78.926	41.104
79.982	38.735
80.927	45.084
81.926	38.743
82.926	41.404
83.926	41.504
84.926	41.304
85.931	41.257
86.924	38.070
87.924	42.504
88.924	41.004
89.924	40.904
90.924	40.404
91.984	40.004
92.982	38.781
93.924	44.378
94.986	38.893
95.985	41.604
96.925	44.579
97.923	39.182
98.923	42.004
99.923	41.404
100.926	40.782
101.926	40.204
102.978	36.696
103.935	44.832
105.003	38.732
105.921	40.854
106.921	40.704
107.921	41.304
108.921	43.004
109.921	39.104
110.979	39.418
111.921	43.741
112.921	41.404
113.934	41.761
114.978	36.881
115.920	43.164
116.981	38.364
117.920	42.709
118.920	40.404
119.920	37.904
120.977	39.550
121.919	42.786
122.919	40.004
123.962	24.835
