Time [s]	Current [nA]
0.000	18.780
1.000	52.295
1.999	47.343
3.056	47.677
3.999	52.911
4.999	50.395
6.000	51.495
7.000	44.896
8.000	51.295
9.000	49.895
10.000	49.295
11.000	49.195
12.003	50.942
13.000	47.137
14.000	49.695
15.001	48.995
16.057	46.113
17.001	52.325
18.001	46.495
19.058	47.583
20.000	52.224
21.056	45.071
22.069	52.216
23.000	48.760
24.000	46.895
25.000	49.295
26.001	48.995
27.001	48.295
28.001	48.895
29.051	49.138
30.001	49.679
31.001	49.795
32.001	49.795
33.001	49.695
34.001	50.995
35.002	47.095
36.002	49.195
37.001	49.244
38.001	48.495
39.001	48.495
40.001	50.195
41.056	44.261
42.001	51.423
43.056	45.777
44.001	51.423
45.001	51.295
46.002	45.095
47.002	50.195
48.002	49.095
49.061	46.077
50.057	48.690
51.002	48.461
52.002	51.095
53.059	47.015
54.002	52.063
55.001	48.744
56.002	50.195
57.074	45.984
58.002	49.349
59.002	49.095
60.002	47.795
61.002	49.095
62.008	50.790
63.002	47.279
64.002	49.795
65.002	48.495
66.003	48.295
67.003	48.695
68.003	45.795
69.003	50.095
70.003	48.595
71.003	48.995
72.002	48.544
73.060	46.782
74.002	49.570
75.002	48.695
76.003	48.895
77.003	47.595
78.003	47.795
79.003	49.995
80.003	45.995
81.003	48.195
82.003	48.095
83.003	47.995
84.003	48.795
85.003	45.395
86.004	48.495
87.004	48.395
88.004	47.095
89.004	47.795
90.003	49.645
91.003	45.995
92.003	49.495
93.003	48.695
94.003	48.295
95.003	50.395
96.004	44.896
97.004	50.395
98.004	48.795
99.004	48.595
100.004	48.495
101.004	50.295
102.004	47.395
103.058	14.420
