Time [s]	Current [nA]
0.000	18.452
0.936	46.470
1.936	44.696
2.936	48.695
3.936	46.395
4.936	46.095
5.937	46.395
6.937	43.696
7.937	47.495
8.995	44.230
9.936	48.454
10.936	45.995
11.936	45.895
12.936	43.096
13.936	46.495
14.936	45.495
15.996	42.678
16.937	48.348
17.937	46.995
18.991	40.983
20.012	48.967
20.937	43.888
21.996	42.111
22.937	47.285
23.937	42.796
24.937	46.195
25.938	44.396
26.937	43.839
27.937	43.196
28.937	45.595
30.011	43.664
30.996	40.301
31.937	47.392
32.937	44.296
33.937	44.696
34.937	45.495
35.938	42.196
36.938	44.596
37.938	43.696
38.938	43.996
39.938	45.595
41.026	41.724
41.938	45.938
43.000	42.369
43.938	47.117
44.937	45.041
45.938	42.096
46.938	45.995
47.938	44.995
48.938	44.796
49.938	44.596
50.938	44.796
51.938	41.196
52.938	45.895
53.938	44.396
54.938	43.896
55.939	43.996
56.939	42.396
57.939	45.895
58.996	42.758
59.939	46.655
60.939	44.196
62.017	40.256
62.938	45.707
63.938	45.995
64.938	44.496
65.939	44.896
66.939	45.195
67.939	42.396
68.939	45.895
69.939	44.296
70.939	44.896
71.939	44.396
72.939	40.296
73.939	45.595
74.997	42.434
75.940	42.989
76.940	43.796
77.940	43.196
78.940	44.396
79.939	44.940
81.002	40.730
81.939	42.685
82.939	43.496
83.939	43.396
85.001	45.382
85.940	43.173
87.004	41.255
87.940	42.197
88.940	43.096
89.940	44.096
90.940	42.996
91.940	40.696
92.940	43.596
93.940	42.496
94.940	42.596
95.941	43.596
96.998	42.758
97.940	41.397
98.998	42.907
99.940	40.336
101.014	45.712
101.940	41.357
102.997	40.866
103.940	40.717
104.940	41.896
105.941	41.996
106.941	43.796
107.941	43.796
108.941	39.396
109.941	42.296
110.941	42.496
111.941	42.596
112.941	44.396
113.941	17.898
