Time [s]	Current [nA]
0.000	26.229
1.056	37.591
2.058	43.010
3.000	43.308
4.000	44.396
4.999	43.539
6.000	43.896
7.000	43.296
8.061	42.974
9.000	42.594
10.000	43.196
11.000	43.096
12.000	42.696
13.000	44.296
14.000	41.196
15.000	43.696
16.001	43.596
17.057	39.485
18.001	45.229
19.062	41.843
20.001	43.766
21.001	43.296
22.001	42.296
23.000	42.738
24.000	44.596
25.000	40.596
26.001	44.296
27.058	40.772
28.001	44.640
29.054	39.787
30.001	42.762
31.065	46.142
32.001	42.197
33.001	42.596
34.001	42.996
35.001	40.696
36.002	43.196
37.002	44.696
38.002	42.896
39.002	42.396
40.001	43.139
41.001	44.996
42.001	40.796
43.001	44.096
44.001	42.296
45.001	42.496
46.002	43.696
47.002	39.996
48.002	44.396
49.002	43.196
50.002	42.096
51.002	43.096
52.002	40.996
53.002	44.096
54.002	43.696
55.061	39.977
56.003	45.218
57.003	42.596
58.002	41.637
59.002	44.896
60.002	43.396
61.002	42.596
62.002	42.396
63.059	41.718
64.002	43.156
65.002	42.396
66.003	43.196
67.061	39.883
68.003	45.431
69.003	40.696
70.065	46.417
71.003	42.107
72.003	42.696
73.062	39.939
74.003	47.179
75.002	40.136
76.003	44.596
77.003	43.696
78.003	42.496
79.003	42.696
80.003	45.095
81.066	42.799
82.003	41.511
83.003	43.096
84.003	43.196
85.003	44.496
86.004	38.896
87.004	44.796
88.004	42.796
89.062	39.788
90.062	42.496
91.004	47.554
92.004	40.696
93.003	43.539
94.003	42.996
95.059	41.039
96.004	46.768
97.004	40.396
98.004	44.096
99.004	42.996
100.004	43.096
101.062	40.922
102.004	47.766
103.004	41.696
104.004	43.896
105.004	43.096
106.005	43.996
107.080	40.554
108.005	44.860
109.005	44.995
110.004	44.140
111.062	40.922
112.004	46.174
113.004	44.996
114.004	40.496
115.004	43.296
116.135	35.926
