Time [s]	Current [nA]
0.000	42.796
1.000	48.495
2.000	52.995
3.000	50.495
4.000	50.295
5.057	47.533
6.059	52.290
7.063	52.883
8.081	50.290
9.000	49.288
10.000	49.895
11.000	49.695
12.000	47.395
13.000	51.895
14.000	50.295
15.000	48.395
16.001	48.895
17.001	50.795
18.001	46.495
19.001	50.895
20.058	47.204
21.057	49.044
22.001	51.584
23.001	46.395
24.001	50.595
25.000	49.845
26.001	48.495
27.001	48.895
28.001	50.295
29.001	44.496
30.001	50.395
31.001	48.395
32.059	45.459
33.001	51.056
34.001	45.495
35.001	50.095
36.064	46.417
37.058	48.084
38.002	50.736
39.080	45.728
40.002	48.043
41.002	48.995
42.002	47.695
43.001	47.142
44.001	47.495
45.001	43.696
46.002	48.895
47.002	46.595
48.059	43.988
49.002	48.776
50.002	46.495
51.002	44.196
52.002	47.895
53.002	45.995
54.060	43.001
55.002	48.509
56.007	45.912
57.003	43.269
58.093	46.693
59.003	45.160
60.002	45.841
61.002	42.196
62.002	47.295
63.002	47.595
64.002	41.796
65.002	44.796
66.003	45.295
67.003	47.395
68.073	44.482
69.003	45.909
70.003	45.895
71.003	44.896
72.003	45.395
73.003	46.795
74.003	42.796
75.003	44.696
76.004	45.095
77.004	45.395
78.003	46.242
79.003	45.495
80.003	43.496
81.003	45.795
82.003	45.095
83.063	46.976
84.061	43.282
85.003	49.995
86.004	41.696
87.064	46.505
88.065	45.850
89.085	46.368
90.065	42.037
91.004	46.215
92.004	45.595
93.004	44.096
94.004	44.996
95.003	47.243
96.062	44.892
97.004	44.582
98.004	45.795
99.004	45.795
100.097	45.467
101.062	44.762
102.004	45.961
103.004	45.195
104.004	44.995
105.004	46.195
106.101	27.278
