Time [s]	Current [nA]
0.000	33.897
1.000	45.295
2.000	45.595
3.062	44.911
4.000	45.624
5.070	47.703
6.001	44.249
7.001	44.996
8.001	45.195
9.060	44.377
10.001	44.948
11.001	45.795
12.058	42.380
13.001	47.821
14.060	44.566
15.002	44.098
16.059	45.975
17.062	46.257
18.058	44.273
19.058	44.596
20.001	44.746
21.059	44.608
22.056	45.833
23.001	47.826
24.001	41.096
25.002	45.395
26.002	46.895
27.002	47.295
28.002	41.796
29.002	44.896
30.002	48.695
31.002	42.596
32.002	47.495
33.001	41.838
34.001	49.395
35.002	41.796
36.095	46.656
37.002	48.286
38.002	46.995
39.002	41.896
40.062	46.410
41.002	48.080
42.002	42.996
43.002	47.495
44.002	41.896
45.003	46.295
46.068	46.944
47.003	43.739
48.003	46.395
49.059	44.219
50.064	45.866
51.002	44.772
52.002	45.795
53.061	44.283
54.002	50.048
55.081	42.482
56.003	46.525
57.066	48.819
58.062	42.265
59.004	50.420
60.003	44.240
61.003	47.995
62.003	45.895
63.003	46.195
64.003	43.596
65.102	46.717
66.004	47.778
67.066	44.252
68.003	49.622
69.060	44.366
70.003	45.595
71.061	45.459
72.003	45.006
73.003	46.395
74.003	45.695
75.003	46.695
76.004	47.095
77.004	43.196
78.060	43.840
79.004	48.406
80.060	42.893
81.004	49.995
82.004	43.296
83.062	29.676
84.066	29.579
85.004	34.112
86.004	40.036
87.004	41.496
88.004	45.595
89.004	44.796
90.004	44.596
91.004	45.895
92.004	43.396
93.004	46.495
94.004	44.796
95.004	45.595
96.005	44.496
97.005	44.796
98.005	42.496
99.005	46.795
100.005	45.395
101.005	41.596
102.005	49.195
103.004	42.839
104.004	46.295
105.004	41.296
106.005	44.096
107.005	45.395
108.063	46.120
109.005	44.582
110.005	47.395
111.109	23.548
