Time [s]	Current [nA]
0.000	33.397
1.000	48.995
2.071	47.054
3.000	49.188
4.000	48.495
5.000	48.795
6.057	44.882
7.001	50.419
8.057	47.438
9.001	48.406
10.001	48.295
11.064	44.304
12.056	48.382
13.001	52.482
14.001	44.396
15.055	47.004
16.001	51.158
17.001	47.495
18.001	47.695
19.001	49.595
20.001	45.395
21.001	48.095
22.057	44.503
23.001	49.995
24.001	48.995
25.001	43.696
26.002	49.395
27.002	47.995
28.061	44.566
29.064	47.154
30.002	48.076
31.002	48.795
32.001	47.943
33.001	46.695
34.056	44.166
35.001	49.836
36.002	45.195
37.002	48.695
38.066	44.638
39.002	50.422
40.002	46.595
41.002	48.795
42.002	44.896
43.002	47.495
44.064	44.911
45.002	49.782
46.003	46.195
47.003	43.796
48.060	45.596
49.062	46.203
50.002	49.144
51.002	46.395
52.002	43.896
53.002	47.895
54.002	47.695
55.002	46.895
56.003	46.095
57.003	46.495
58.003	48.195
59.003	44.995
60.003	46.895
61.060	44.177
62.003	49.518
63.003	48.395
64.003	42.796
65.003	48.995
66.004	47.795
67.003	47.042
68.059	44.124
69.059	44.396
70.003	51.478
71.061	44.703
72.003	45.537
73.003	46.795
74.003	46.995
75.003	48.495
76.004	44.796
77.004	46.895
78.064	47.637
79.004	44.889
80.066	49.807
81.067	43.552
82.004	46.100
83.065	47.875
84.004	45.363
85.088	46.994
86.054	46.269
87.004	51.048
88.004	43.296
89.004	46.595
90.004	46.895
91.004	48.295
92.062	45.742
93.004	45.325
94.004	47.795
95.004	47.295
96.005	46.295
97.062	45.975
98.005	46.973
99.063	45.175
100.062	46.542
101.005	49.306
102.004	44.540
103.004	47.195
104.004	47.595
105.004	47.195
106.126	30.327
