Time [s]	Current [nA]
0.000	33.197
1.090	37.336
2.000	40.216
3.000	41.196
4.000	40.496
5.001	40.096
6.058	37.934
7.001	44.534
8.065	40.128
9.001	39.633
10.001	40.296
11.001	40.396
12.001	40.696
13.001	38.796
14.000	42.638
15.000	40.996
16.001	40.396
17.001	40.596
18.001	38.296
19.001	41.896
20.001	40.696
21.063	38.508
22.001	43.066
23.001	40.496
24.001	38.196
25.058	39.674
26.002	43.216
27.002	40.396
28.002	40.696
29.002	42.096
30.002	38.396
31.001	41.838
32.001	40.696
33.001	40.496
34.059	38.559
35.001	41.291
36.002	42.196
37.002	40.696
38.002	40.796
39.002	40.496
40.002	38.596
41.002	41.196
42.002	42.896
43.002	40.696
44.002	40.596
45.061	38.749
46.057	41.662
47.003	40.694
48.003	41.596
49.002	40.236
50.060	38.465
51.002	43.732
52.002	37.896
53.002	42.096
54.002	41.096
55.064	38.356
56.003	43.659
57.003	41.696
58.003	38.696
59.003	41.496
60.003	40.496
61.003	40.896
62.003	40.496
63.003	39.296
64.003	42.396
65.003	41.096
66.003	40.837
67.003	40.896
68.004	42.054
69.003	39.436
70.003	41.396
71.003	41.696
72.003	41.196
73.003	38.296
74.003	42.796
75.003	41.896
76.004	38.296
77.004	40.796
78.004	40.596
79.004	41.996
80.004	38.296
81.071	43.201
82.004	39.332
83.003	40.637
84.064	42.314
85.003	40.784
86.004	42.396
87.004	37.596
88.004	40.996
89.004	41.096
90.004	42.396
91.004	41.196
92.004	38.796
93.065	42.314
94.004	39.293
95.004	40.796
96.005	42.496
97.064	39.939
98.025	24.139
